*RAS_DATA_START
*RAS_HEADER_START
*CORR_POS_DB_NAME "DTEX_11112016"
*CORR_POS_GONIO_RADIUS ""
*CORR_POS_NODE_INDEX01 ""
*CORR_POS_NODE_INDEX02 ""
*CORR_POS_NODE_INDEX03 ""
*CORR_POS_NODE_INDEX04 ""
*CORR_POS_NODE_INDEX05 ""
*CORR_POS_NODE_INDEX06 ""
*CORR_POS_NODE_INDEX07 ""
*CORR_POS_NODE_INDEX08 ""
*CORR_POS_NODE_INDEX09 ""
*CORR_POS_NODE_INDEX10 ""
*CORR_POS_NODE_INDEX11 ""
*CORR_POS_NODE_LABEL01 "Si(111)"
*CORR_POS_NODE_LABEL02 "Si(220)"
*CORR_POS_NODE_LABEL03 "Si(311)"
*CORR_POS_NODE_LABEL04 "Si(400)"
*CORR_POS_NODE_LABEL05 "Si(331)"
*CORR_POS_NODE_LABEL06 "Si(422)"
*CORR_POS_NODE_LABEL07 "Si(511)"
*CORR_POS_NODE_LABEL08 "Si(440)"
*CORR_POS_NODE_LABEL09 "Si(531)"
*CORR_POS_NODE_LABEL10 "Si(620)"
*CORR_POS_NODE_LABEL11 "Si(533)"
*CORR_POS_NODE_POS_CALC01 "28.4137"
*CORR_POS_NODE_POS_CALC02 "47.2707"
*CORR_POS_NODE_POS_CALC03 "56.0883"
*CORR_POS_NODE_POS_CALC04 "69.0934"
*CORR_POS_NODE_POS_CALC05 "76.3385"
*CORR_POS_NODE_POS_CALC06 "87.9915"
*CORR_POS_NODE_POS_CALC07 "94.9137"
*CORR_POS_NODE_POS_CALC08 "106.67"
*CORR_POS_NODE_POS_CALC09 "114.054"
*CORR_POS_NODE_POS_CALC10 "127.508"
*CORR_POS_NODE_POS_CALC11 "136.858"
*CORR_POS_NODE_POS_MEAS01 "28.3712"
*CORR_POS_NODE_POS_MEAS02 "47.2304"
*CORR_POS_NODE_POS_MEAS03 "56.0465"
*CORR_POS_NODE_POS_MEAS04 "69.0523"
*CORR_POS_NODE_POS_MEAS05 "76.2993"
*CORR_POS_NODE_POS_MEAS06 "87.9512"
*CORR_POS_NODE_POS_MEAS07 "94.8772"
*CORR_POS_NODE_POS_MEAS08 "106.636"
*CORR_POS_NODE_POS_MEAS09 "114.028"
*CORR_POS_NODE_POS_MEAS10 "127.48"
*CORR_POS_NODE_POS_MEAS11 "136.839"
*CORR_POS_OPT_ATTR "集中法"
*CORR_POS_PARAM_MU ""
*CORR_POS_PARAM_PL ""
*CORR_POS_SEMODEL_TYPE "0"
*CORR_POS_STANDARD_TYPE ""
*CORR_POS_VALUE_ANALYZER "None"
*CORR_POS_VALUE_CMONO "None"
*CORR_POS_VALUE_IMONO "None"
*CORR_POS_VALUE_IS "0.625deg"
*CORR_POS_VALUE_ISL "10.0mm"
*CORR_POS_VALUE_ISOLLER "2.5deg"
*CORR_POS_VALUE_RS1 "13.0mm"
*CORR_POS_VALUE_RS2 "13.0mm"
*CORR_POS_VALUE_RSOLLER "2.5deg"
*CORR_POS_XG_FOCUS_L ""
*CORR_POS_XG_WAVE_TYPE ""
*CORR_POS_XG_WAVE_VALUE ""
*DISP_FMT_X "%.2f"
*DISP_FMT_Y "%.0f"
*DISP_FULLSCALE "11292.0000000000"
*DISP_LINE_COLOR "255.0000000000"
*DISP_LINE_STYLE "0.0000000000"
*DISP_LINE_WIDTH "0.2500000000"
*DISP_NOTE "Collected Data-2"
*DISP_OFFSET_Y "0.0000000000"
*DISP_PEAKSEARCH_UNIT_Y "COUNTS"
*DISP_RANGE_BOTTOM "0.0000000000"
*DISP_RANGE_LEFT "20.0000000000"
*DISP_RANGE_LOGCUTOFF "0.0100000000"
*DISP_RANGE_RIGHT "90.0000000000"
*DISP_RANGE_TOP "11292.0000000000"
*DISP_SCALE_MODE_Y "0.0000000000"
*DISP_TAB_NAME "Theta/2-Theta"
*DISP_TITLE_Y "Intensity"
*DISP_UNIT_Y "COUNTS"
*DISP_WINDOW_NAME "MSG_MACROENGINE"
*FILE_COMMENT " "
*FILE_MD5 ""
*FILE_MEMO " "
*FILE_OPERATOR "MiniFlex"
*FILE_PART_ID "MEAS_PBEA_00223"
*FILE_SAMPLE "cu2o_009"
*FILE_TYPE "RAS_RAW"
*FILE_USERGROUP "System User"
*FILE_VERSION "1.0000000000"
*HW_ATTACHMENT_ID "ATT1031"
*HW_ATTACHMENT_NAME "6サンプルチェンジャ|ASC-6"
*HW_COUNTER_ID-0 "CUT0025"
*HW_COUNTER_ID-1 "CUT0020"
*HW_COUNTER_ID-2 "CUT0020"
*HW_COUNTER_ID-3 "CMC0021"
*HW_COUNTER_NAME-0 "D/teX Ultra|D/teX Ultra"
*HW_COUNTER_NAME-1 "None|None"
*HW_COUNTER_NAME-2 "None|None"
*HW_COUNTER_NAME-3 "検出器モノクロメータ|Detector monochromator"
*HW_COUNTER_SELECT_NAME "D/teX Ultra|D/teX Ultra"
*HW_GONIOMETER_ID "GON0070"
*HW_GONIOMETER_NAME "MiniFlex 300/600|MiniFlex 300/600"
*HW_GONIOMETER_RADIUS-0 "79.0"
*HW_GONIOMETER_RADIUS-1 "91.5"
*HW_GONIOMETER_RADIUS-2 "150.0"
*HW_GONIOMETER_RADIUS-3 "0"
*HW_GONIOMETER_RADIUS-4 "103.4"
*HW_GONIOMETER_RADIUS-5 "150.0"
*HW_GONIOMETER_RADIUS-6 "46.6"
*HW_GONIOMETER_RADIUS-7 "160.0"
*HW_I_OPT_ID-0 "ISL0021"
*HW_I_OPT_ID-1 "ISO0021"
*HW_I_OPT_NAME-0 "発散スリット|Divergence slit"
*HW_I_OPT_NAME-1 "入射平行スリット|Incident parallel slit"
*HW_R_ATTENUATER_AUTOMODE "0"
*HW_R_OPT_ID-0 "RSS0021"
*HW_R_OPT_ID-1 "RSO0021"
*HW_R_OPT_ID-2 "RRS0021"
*HW_R_OPT_NAME-0 "散乱スリット|Scattering slit"
*HW_R_OPT_NAME-1 "受光平行スリット|Receiving soller slit"
*HW_R_OPT_NAME-2 "受光スリット|Receiving slit"
*HW_SAMPLE_HOLDER_ID "SMP0000"
*HW_SAMPLE_HOLDER_NAME "無し|None"
*HW_XG_CURRENT_MAX "15"
*HW_XG_CURRENT_MIN "2"
*HW_XG_CURRENT_RESOLUTION "1"
*HW_XG_CURRENT_UNIT "mA"
*HW_XG_FOCUS "1mm x 10mm"
*HW_XG_FOCUS_TYPE "Normal"
*HW_XG_ID "1060"
*HW_XG_NAME "300W/600W 封入管-B|300W/600W Sealed tube-B"
*HW_XG_TARGET_ATOMIC_NUMBER "29.0000000000"
*HW_XG_TARGET_NAME "Cu"
*HW_XG_TYPE "Hermetic"
*HW_XG_VOLTAGE_MAX "40"
*HW_XG_VOLTAGE_MIN "20"
*HW_XG_VOLTAGE_RESOLUTION "1"
*HW_XG_VOLTAGE_UNIT "kV"
*HW_XG_WATT_MAX "1"
*HW_XG_WATT_UNIT "kW"
*HW_XG_WAVE_LENGTH_ALPHA1 "1.540593"
*HW_XG_WAVE_LENGTH_ALPHA2 "1.544414"
*HW_XG_WAVE_LENGTH_BETA "1.392250"
*MEAS_COND_AXIS_NAME-0 "Theta/2-Theta"
*MEAS_COND_AXIS_NAME-1 "Spin"
*MEAS_COND_AXIS_NAME-2 "Change"
*MEAS_COND_AXIS_NAME-3 "Soller(inc.)"
*MEAS_COND_AXIS_NAME-4 "IHS"
*MEAS_COND_AXIS_NAME-5 "DS"
*MEAS_COND_AXIS_NAME-6 "SS"
*MEAS_COND_AXIS_NAME-7 "Soller(rec.)"
*MEAS_COND_AXIS_NAME-8 "RS"
*MEAS_COND_AXIS_NAME-9 "Filter"
*MEAS_COND_AXIS_NAME-10 "Monochromator"
*MEAS_COND_AXIS_NAME-11 "PHA"
*MEAS_COND_AXIS_NAME_INTERNAL-0 "TwoThetaTheta"
*MEAS_COND_AXIS_NAME_INTERNAL-1 "Spin"
*MEAS_COND_AXIS_NAME_INTERNAL-2 "Change"
*MEAS_COND_AXIS_NAME_INTERNAL-3 "IncidentSollerSlit"
*MEAS_COND_AXIS_NAME_INTERNAL-4 "IncidentAxdSlit"
*MEAS_COND_AXIS_NAME_INTERNAL-5 "IncidentSlitBox"
*MEAS_COND_AXIS_NAME_INTERNAL-6 "ReceivingSlitBox1"
*MEAS_COND_AXIS_NAME_INTERNAL-7 "ReceivingSollerSlit"
*MEAS_COND_AXIS_NAME_INTERNAL-8 "ReceivingSlitBox2"
*MEAS_COND_AXIS_NAME_INTERNAL-9 "Filter"
*MEAS_COND_AXIS_NAME_INTERNAL-10 "CounterMonochromator"
*MEAS_COND_AXIS_NAME_INTERNAL-11 "PHA"
*MEAS_COND_AXIS_NAME_MAGICNO-0 "268632064.0000000000"
*MEAS_COND_AXIS_NAME_MAGICNO-1 "16842752.0000000000"
*MEAS_COND_AXIS_NAME_MAGICNO-2 "16842752.0000000000"
*MEAS_COND_AXIS_NAME_MAGICNO-3 "20971521.0000000000"
*MEAS_COND_AXIS_NAME_MAGICNO-4 "22020097.0000000000"
*MEAS_COND_AXIS_NAME_MAGICNO-5 "22020097.0000000000"
*MEAS_COND_AXIS_NAME_MAGICNO-6 "23068673.0000000000"
*MEAS_COND_AXIS_NAME_MAGICNO-7 "20971521.0000000000"
*MEAS_COND_AXIS_NAME_MAGICNO-8 "23068673.0000000000"
*MEAS_COND_AXIS_NAME_MAGICNO-9 "20971521.0000000000"
*MEAS_COND_AXIS_NAME_MAGICNO-10 "20971521.0000000000"
*MEAS_COND_AXIS_NAME_MAGICNO-11 "0.0000000000"
*MEAS_COND_AXIS_OFFSET-0 "0.0000000000"
*MEAS_COND_AXIS_OFFSET-1 "-"
*MEAS_COND_AXIS_OFFSET-2 "-"
*MEAS_COND_AXIS_OFFSET-3 "-"
*MEAS_COND_AXIS_OFFSET-4 "-"
*MEAS_COND_AXIS_OFFSET-5 "-"
*MEAS_COND_AXIS_OFFSET-6 "-"
*MEAS_COND_AXIS_OFFSET-7 "-"
*MEAS_COND_AXIS_OFFSET-8 "-"
*MEAS_COND_AXIS_OFFSET-9 "-"
*MEAS_COND_AXIS_OFFSET-10 "-"
*MEAS_COND_AXIS_OFFSET-11 "-"
*MEAS_COND_AXIS_POSITION-0 "92.5150000000"
*MEAS_COND_AXIS_POSITION-1 "0.0000000000"
*MEAS_COND_AXIS_POSITION-2 "2.0000000000"
*MEAS_COND_AXIS_POSITION-3 "2.5deg"
*MEAS_COND_AXIS_POSITION-4 "2.0mm"
*MEAS_COND_AXIS_POSITION-5 "0.625deg"
*MEAS_COND_AXIS_POSITION-6 "13.0mm(Open)"
*MEAS_COND_AXIS_POSITION-7 "2.5deg"
*MEAS_COND_AXIS_POSITION-8 "13.0mm"
*MEAS_COND_AXIS_POSITION-9 "K-beta(x2)"
*MEAS_COND_AXIS_POSITION-10 "None"
*MEAS_COND_AXIS_POSITION-11 "41.0000000000"
*MEAS_COND_AXIS_UNIT-0 "deg"
*MEAS_COND_AXIS_UNIT-1 ""
*MEAS_COND_AXIS_UNIT-2 ""
*MEAS_COND_AXIS_UNIT-3 ""
*MEAS_COND_AXIS_UNIT-4 ""
*MEAS_COND_AXIS_UNIT-5 ""
*MEAS_COND_AXIS_UNIT-6 ""
*MEAS_COND_AXIS_UNIT-7 ""
*MEAS_COND_AXIS_UNIT-8 ""
*MEAS_COND_AXIS_UNIT-9 ""
*MEAS_COND_AXIS_UNIT-10 ""
*MEAS_COND_AXIS_UNIT-11 "div"
*MEAS_COND_CORRECTION_SLIT_COUNTERMONO "None"
*MEAS_COND_CORRECTION_SLIT_DS "0.625deg"
*MEAS_COND_CORRECTION_SLIT_FILTER "None"
*MEAS_COND_CORRECTION_SLIT_IHS "2.0mm"
*MEAS_COND_CORRECTION_SLIT_RS "13.0mm"
*MEAS_COND_CORRECTION_SLIT_SOLLER_INC "2.5deg"
*MEAS_COND_CORRECTION_SLIT_SOLLER_REC "2.5deg"
*MEAS_COND_CORRECTION_SLIT_SS "13.0mm"
*MEAS_COND_COUNTER_CNTLOSS_CORR "0.0000000000"
*MEAS_COND_COUNTER_PHABASE "41.0000000000"
*MEAS_COND_COUNTER_PHAWINDOW "14.0000000000"
*MEAS_COND_COUNTER_PHA_UNIT "div"
*MEAS_COND_COUNTER_TAUDIFF "0.2500000000"
*MEAS_COND_COUNTER_TAUINT "0.7500000000"
*MEAS_COND_IRRADIATION_MODE "OFF"
*MEAS_COND_IRRADIATION_WIDTH ""
*MEAS_COND_OPT_ATTR " "
*MEAS_COND_OPT_NAME ""
*MEAS_COND_UNSYMMETRIC_MODE "OFF"
*MEAS_COND_XG_CURRENT "15.0000000000"
*MEAS_COND_XG_VOLTAGE "40.0000000000"
*MEAS_COND_XG_WAVE_TYPE "Ka"
*MEAS_DATA_COUNT "3501.0000000000"
*MEAS_SCAN_AXIS_X "Theta/2-Theta"
*MEAS_SCAN_AXIS_X_INTERNAL "TwoThetaTheta"
*MEAS_SCAN_END_TIME "08/14/17 11:31:29"
*MEAS_SCAN_MODE "CONTINUOUS"
*MEAS_SCAN_MONITOR "0"
*MEAS_SCAN_RESOLUTION_X "0.005"
*MEAS_SCAN_SPEED "15.000"
*MEAS_SCAN_SPEED_UNIT "deg/min"
*MEAS_SCAN_SPEED_USER "15.000"
*MEAS_SCAN_START "20.0000000000"
*MEAS_SCAN_START_TIME "08/14/17 11:26:05"
*MEAS_SCAN_STEP "0.0200000000"
*MEAS_SCAN_STOP "90.0000000000"
*MEAS_SCAN_UNIT_X "deg"
*MEAS_SCAN_UNIT_Y "counts"
*SLIT_SYSTEM "0"
*RAS_HEADER_END
*RAS_INT_START
20.000 149.000 1.000
20.020 149.000 1.000
20.040 149.000 1.000
20.060 168.000 1.000
20.080 170.000 1.000
20.100 179.000 1.000
20.120 179.000 1.000
20.140 179.000 1.000
20.160 174.000 1.000
20.180 170.000 1.000
20.200 168.000 1.000
20.220 170.000 1.000
20.240 155.000 1.000
20.260 159.000 1.000
20.280 161.000 1.000
20.300 154.000 1.000
20.320 170.000 1.000
20.340 186.000 1.000
20.360 191.000 1.000
20.380 182.000 1.000
20.400 159.000 1.000
20.420 152.000 1.000
20.440 150.000 1.000
20.460 161.000 1.000
20.480 160.000 1.000
20.500 175.000 1.000
20.520 173.000 1.000
20.540 174.000 1.000
20.560 182.000 1.000
20.580 178.000 1.000
20.600 179.000 1.000
20.620 174.000 1.000
20.640 150.000 1.000
20.660 149.000 1.000
20.680 171.000 1.000
20.700 169.000 1.000
20.720 161.000 1.000
20.740 149.000 1.000
20.760 149.000 1.000
20.780 175.000 1.000
20.800 168.000 1.000
20.820 179.000 1.000
20.840 169.000 1.000
20.860 185.000 1.000
20.880 170.000 1.000
20.900 169.000 1.000
20.920 160.000 1.000
20.940 168.000 1.000
20.960 161.000 1.000
20.980 160.000 1.000
21.000 176.000 1.000
21.020 170.000 1.000
21.040 158.000 1.000
21.060 151.000 1.000
21.080 156.000 1.000
21.100 163.000 1.000
21.120 175.000 1.000
21.140 169.000 1.000
21.160 188.000 1.000
21.180 192.000 1.000
21.200 162.000 1.000
21.220 151.000 1.000
21.240 175.000 1.000
21.260 178.000 1.000
21.280 179.000 1.000
21.300 175.000 1.000
21.320 164.000 1.000
21.340 188.000 1.000
21.360 184.000 1.000
21.380 190.000 1.000
21.400 199.000 1.000
21.420 203.000 1.000
21.440 213.000 1.000
21.460 201.000 1.000
21.480 179.000 1.000
21.500 172.000 1.000
21.520 191.000 1.000
21.540 196.000 1.000
21.560 164.000 1.000
21.580 162.000 1.000
21.600 177.000 1.000
21.620 190.000 1.000
21.640 176.000 1.000
21.660 166.000 1.000
21.680 166.000 1.000
21.700 189.000 1.000
21.720 188.000 1.000
21.740 176.000 1.000
21.760 170.000 1.000
21.780 176.000 1.000
21.800 186.000 1.000
21.820 170.000 1.000
21.840 168.000 1.000
21.860 191.000 1.000
21.880 189.000 1.000
21.900 188.000 1.000
21.920 171.000 1.000
21.940 173.000 1.000
21.960 183.000 1.000
21.980 197.000 1.000
22.000 193.000 1.000
22.020 201.000 1.000
22.040 195.000 1.000
22.060 181.000 1.000
22.080 187.000 1.000
22.100 179.000 1.000
22.120 186.000 1.000
22.140 181.000 1.000
22.160 184.000 1.000
22.180 187.000 1.000
22.200 180.000 1.000
22.220 180.000 1.000
22.240 188.000 1.000
22.260 172.000 1.000
22.280 196.000 1.000
22.300 178.000 1.000
22.320 187.000 1.000
22.340 193.000 1.000
22.360 188.000 1.000
22.380 198.000 1.000
22.400 196.000 1.000
22.420 188.000 1.000
22.440 189.000 1.000
22.460 192.000 1.000
22.480 203.000 1.000
22.500 199.000 1.000
22.520 191.000 1.000
22.540 195.000 1.000
22.560 208.000 1.000
22.580 221.000 1.000
22.600 208.000 1.000
22.620 215.000 1.000
22.640 197.000 1.000
22.660 187.000 1.000
22.680 190.000 1.000
22.700 214.000 1.000
22.720 209.000 1.000
22.740 200.000 1.000
22.760 214.000 1.000
22.780 196.000 1.000
22.800 206.000 1.000
22.820 195.000 1.000
22.840 208.000 1.000
22.860 209.000 1.000
22.880 210.000 1.000
22.900 194.000 1.000
22.920 214.000 1.000
22.940 210.000 1.000
22.960 210.000 1.000
22.980 219.000 1.000
23.000 214.000 1.000
23.020 214.000 1.000
23.040 214.000 1.000
23.060 210.000 1.000
23.080 221.000 1.000
23.100 204.000 1.000
23.120 200.000 1.000
23.140 215.000 1.000
23.160 222.000 1.000
23.180 237.000 1.000
23.200 240.000 1.000
23.220 248.000 1.000
23.240 248.000 1.000
23.260 230.000 1.000
23.280 231.000 1.000
23.300 243.000 1.000
23.320 250.000 1.000
23.340 240.000 1.000
23.360 248.000 1.000
23.380 245.000 1.000
23.400 241.000 1.000
23.420 247.000 1.000
23.440 246.000 1.000
23.460 237.000 1.000
23.480 256.000 1.000
23.500 287.000 1.000
23.520 280.000 1.000
23.540 267.000 1.000
23.560 268.000 1.000
23.580 293.000 1.000
23.600 259.000 1.000
23.620 259.000 1.000
23.640 277.000 1.000
23.660 287.000 1.000
23.680 272.000 1.000
23.700 285.000 1.000
23.720 292.000 1.000
23.740 297.000 1.000
23.760 293.000 1.000
23.780 304.000 1.000
23.800 300.000 1.000
23.820 284.000 1.000
23.840 314.000 1.000
23.860 319.000 1.000
23.880 316.000 1.000
23.900 321.000 1.000
23.920 322.000 1.000
23.940 302.000 1.000
23.960 311.000 1.000
23.980 302.000 1.000
24.000 304.000 1.000
24.020 322.000 1.000
24.040 350.000 1.000
24.060 343.000 1.000
24.080 349.000 1.000
24.100 347.000 1.000
24.120 334.000 1.000
24.140 333.000 1.000
24.160 332.000 1.000
24.180 330.000 1.000
24.200 362.000 1.000
24.220 362.000 1.000
24.240 374.000 1.000
24.260 375.000 1.000
24.280 395.000 1.000
24.300 422.000 1.000
24.320 400.000 1.000
24.340 415.000 1.000
24.360 408.000 1.000
24.380 399.000 1.000
24.400 392.000 1.000
24.420 418.000 1.000
24.440 406.000 1.000
24.460 424.000 1.000
24.480 463.000 1.000
24.500 464.000 1.000
24.520 489.000 1.000
24.540 477.000 1.000
24.560 494.000 1.000
24.580 476.000 1.000
24.600 507.000 1.000
24.620 512.000 1.000
24.640 539.000 1.000
24.660 507.000 1.000
24.680 537.000 1.000
24.700 578.000 1.000
24.720 560.000 1.000
24.740 546.000 1.000
24.760 546.000 1.000
24.780 602.000 1.000
24.800 588.000 1.000
24.820 585.000 1.000
24.840 582.000 1.000
24.860 595.000 1.000
24.880 615.000 1.000
24.900 636.000 1.000
24.920 627.000 1.000
24.940 648.000 1.000
24.960 653.000 1.000
24.980 694.000 1.000
25.000 725.000 1.000
25.020 733.000 1.000
25.040 721.000 1.000
25.060 749.000 1.000
25.080 791.000 1.000
25.100 781.000 1.000
25.120 809.000 1.000
25.140 852.000 1.000
25.160 888.000 1.000
25.180 889.000 1.000
25.200 901.000 1.000
25.220 925.000 1.000
25.240 959.000 1.000
25.260 956.000 1.000
25.280 926.000 1.000
25.300 1002.000 1.000
25.320 1018.000 1.000
25.340 1056.000 1.000
25.360 1068.000 1.000
25.380 1171.000 1.000
25.400 1135.000 1.000
25.420 1156.000 1.000
25.440 1165.000 1.000
25.460 1250.000 1.000
25.480 1282.000 1.000
25.500 1272.000 1.000
25.520 1344.000 1.000
25.540 1353.000 1.000
25.560 1427.000 1.000
25.580 1417.000 1.000
25.600 1452.000 1.000
25.620 1491.000 1.000
25.640 1564.000 1.000
25.660 1579.000 1.000
25.680 1624.000 1.000
25.700 1635.000 1.000
25.720 1659.000 1.000
25.740 1724.000 1.000
25.760 1709.000 1.000
25.780 1741.000 1.000
25.800 1838.000 1.000
25.820 1936.000 1.000
25.840 1944.000 1.000
25.860 1988.000 1.000
25.880 2012.000 1.000
25.900 2059.000 1.000
25.920 2069.000 1.000
25.940 2109.000 1.000
25.960 2120.000 1.000
25.980 2201.000 1.000
26.000 2260.000 1.000
26.020 2269.000 1.000
26.040 2348.000 1.000
26.060 2391.000 1.000
26.080 2280.000 1.000
26.100 2384.000 1.000
26.120 2426.000 1.000
26.140 2462.000 1.000
26.160 2586.000 1.000
26.180 2643.000 1.000
26.200 2670.000 1.000
26.220 2776.000 1.000
26.240 2865.000 1.000
26.260 3012.000 1.000
26.280 3188.000 1.000
26.300 3332.000 1.000
26.320 3581.000 1.000
26.340 3954.000 1.000
26.360 4354.000 1.000
26.380 5013.000 1.000
26.400 5650.000 1.000
26.420 6544.000 1.000
26.440 7421.000 1.000
26.460 8204.000 1.000
26.480 8792.000 1.000
26.500 9258.000 1.000
26.520 9410.000 1.000
26.540 9054.000 1.000
26.560 8432.000 1.000
26.580 7629.000 1.000
26.600 6640.000 1.000
26.620 5538.000 1.000
26.640 4454.000 1.000
26.660 3657.000 1.000
26.680 2956.000 1.000
26.700 2497.000 1.000
26.720 2054.000 1.000
26.740 1758.000 1.000
26.760 1597.000 1.000
26.780 1425.000 1.000
26.800 1297.000 1.000
26.820 1163.000 1.000
26.840 1070.000 1.000
26.860 1024.000 1.000
26.880 994.000 1.000
26.900 981.000 1.000
26.920 918.000 1.000
26.940 920.000 1.000
26.960 888.000 1.000
26.980 785.000 1.000
27.000 712.000 1.000
27.020 732.000 1.000
27.040 705.000 1.000
27.060 676.000 1.000
27.080 629.000 1.000
27.100 582.000 1.000
27.120 596.000 1.000
27.140 606.000 1.000
27.160 574.000 1.000
27.180 521.000 1.000
27.200 531.000 1.000
27.220 494.000 1.000
27.240 489.000 1.000
27.260 502.000 1.000
27.280 485.000 1.000
27.300 459.000 1.000
27.320 468.000 1.000
27.340 437.000 1.000
27.360 404.000 1.000
27.380 440.000 1.000
27.400 446.000 1.000
27.420 406.000 1.000
27.440 404.000 1.000
27.460 395.000 1.000
27.480 401.000 1.000
27.500 371.000 1.000
27.520 348.000 1.000
27.540 350.000 1.000
27.560 352.000 1.000
27.580 362.000 1.000
27.600 349.000 1.000
27.620 319.000 1.000
27.640 331.000 1.000
27.660 348.000 1.000
27.680 332.000 1.000
27.700 339.000 1.000
27.720 350.000 1.000
27.740 315.000 1.000
27.760 299.000 1.000
27.780 293.000 1.000
27.800 315.000 1.000
27.820 308.000 1.000
27.840 281.000 1.000
27.860 281.000 1.000
27.880 283.000 1.000
27.900 308.000 1.000
27.920 275.000 1.000
27.940 264.000 1.000
27.960 271.000 1.000
27.980 260.000 1.000
28.000 273.000 1.000
28.020 253.000 1.000
28.040 264.000 1.000
28.060 268.000 1.000
28.080 244.000 1.000
28.100 266.000 1.000
28.120 232.000 1.000
28.140 246.000 1.000
28.160 247.000 1.000
28.180 250.000 1.000
28.200 237.000 1.000
28.220 215.000 1.000
28.240 257.000 1.000
28.260 232.000 1.000
28.280 212.000 1.000
28.300 220.000 1.000
28.320 236.000 1.000
28.340 237.000 1.000
28.360 236.000 1.000
28.380 212.000 1.000
28.400 219.000 1.000
28.420 223.000 1.000
28.440 222.000 1.000
28.460 226.000 1.000
28.480 204.000 1.000
28.500 199.000 1.000
28.520 205.000 1.000
28.540 217.000 1.000
28.560 189.000 1.000
28.580 204.000 1.000
28.600 194.000 1.000
28.620 206.000 1.000
28.640 204.000 1.000
28.660 190.000 1.000
28.680 197.000 1.000
28.700 198.000 1.000
28.720 206.000 1.000
28.740 203.000 1.000
28.760 177.000 1.000
28.780 178.000 1.000
28.800 200.000 1.000
28.820 210.000 1.000
28.840 200.000 1.000
28.860 207.000 1.000
28.880 198.000 1.000
28.900 181.000 1.000
28.920 181.000 1.000
28.940 193.000 1.000
28.960 169.000 1.000
28.980 174.000 1.000
29.000 175.000 1.000
29.020 185.000 1.000
29.040 173.000 1.000
29.060 187.000 1.000
29.080 182.000 1.000
29.100 180.000 1.000
29.120 176.000 1.000
29.140 183.000 1.000
29.160 174.000 1.000
29.180 172.000 1.000
29.200 168.000 1.000
29.220 170.000 1.000
29.240 181.000 1.000
29.260 167.000 1.000
29.280 169.000 1.000
29.300 161.000 1.000
29.320 187.000 1.000
29.340 184.000 1.000
29.360 202.000 1.000
29.380 177.000 1.000
29.400 191.000 1.000
29.420 194.000 1.000
29.440 190.000 1.000
29.460 170.000 1.000
29.480 179.000 1.000
29.500 179.000 1.000
29.520 161.000 1.000
29.540 176.000 1.000
29.560 173.000 1.000
29.580 168.000 1.000
29.600 168.000 1.000
29.620 172.000 1.000
29.640 168.000 1.000
29.660 170.000 1.000
29.680 191.000 1.000
29.700 191.000 1.000
29.720 174.000 1.000
29.740 179.000 1.000
29.760 184.000 1.000
29.780 194.000 1.000
29.800 201.000 1.000
29.820 192.000 1.000
29.840 179.000 1.000
29.860 178.000 1.000
29.880 183.000 1.000
29.900 182.000 1.000
29.920 176.000 1.000
29.940 164.000 1.000
