Angle Intensity Error
10.000 234.000 1.000
10.020 234.000 1.000
10.040 234.000 1.000
10.060 236.000 1.000
10.080 237.000 1.000
10.100 226.000 1.000
10.120 239.000 1.000
10.140 233.000 1.000
10.160 244.000 1.000
10.180 253.000 1.000
10.200 239.000 1.000
10.220 230.000 1.000
10.240 228.000 1.000
10.260 239.000 1.000
10.280 240.000 1.000
10.300 248.000 1.000
10.320 244.000 1.000
10.340 227.000 1.000
10.360 243.000 1.000
10.380 237.000 1.000
10.400 239.000 1.000
10.420 249.000 1.000
10.440 238.000 1.000
10.460 221.000 1.000
10.480 240.000 1.000
10.500 243.000 1.000
10.520 223.000 1.000
10.540 222.000 1.000
10.560 241.000 1.000
10.580 249.000 1.000
10.600 231.000 1.000
10.620 222.000 1.000
10.640 222.000 1.000
10.660 238.000 1.000
10.680 244.000 1.000
10.700 247.000 1.000
10.720 253.000 1.000
10.740 250.000 1.000
10.760 232.000 1.000
10.780 240.000 1.000
10.800 247.000 1.000
10.820 239.000 1.000
10.840 228.000 1.000
10.860 237.000 1.000
10.880 240.000 1.000
10.900 224.000 1.000
10.920 228.000 1.000
10.940 235.000 1.000
10.960 245.000 1.000
10.980 245.000 1.000
11.000 248.000 1.000
11.020 245.000 1.000
11.040 238.000 1.000
11.060 222.000 1.000
11.080 232.000 1.000
11.100 237.000 1.000
11.120 234.000 1.000
11.140 237.000 1.000
11.160 242.000 1.000
11.180 249.000 1.000
11.200 260.000 1.000
11.220 242.000 1.000
11.240 225.000 1.000
11.260 234.000 1.000
11.280 253.000 1.000
11.300 252.000 1.000
11.320 255.000 1.000
11.340 251.000 1.000
11.360 231.000 1.000
11.380 235.000 1.000
11.400 228.000 1.000
11.420 247.000 1.000
11.440 252.000 1.000
11.460 244.000 1.000
11.480 235.000 1.000
11.500 248.000 1.000
11.520 243.000 1.000
11.540 245.000 1.000
11.560 245.000 1.000
11.580 248.000 1.000
11.600 254.000 1.000
11.620 267.000 1.000
11.640 238.000 1.000
11.660 258.000 1.000
11.680 235.000 1.000
11.700 245.000 1.000
11.720 243.000 1.000
11.740 245.000 1.000
11.760 240.000 1.000
11.780 233.000 1.000
11.800 242.000 1.000
11.820 231.000 1.000
11.840 244.000 1.000
11.860 255.000 1.000
11.880 234.000 1.000
11.900 229.000 1.000
11.920 244.000 1.000
11.940 266.000 1.000
11.960 233.000 1.000
11.980 219.000 1.000
12.000 226.000 1.000
12.020 251.000 1.000
12.040 242.000 1.000
12.060 245.000 1.000
12.080 237.000 1.000
12.100 234.000 1.000
12.120 234.000 1.000
12.140 245.000 1.000
12.160 232.000 1.000
12.180 237.000 1.000
12.200 232.000 1.000
12.220 230.000 1.000
12.240 240.000 1.000
12.260 251.000 1.000
12.280 241.000 1.000
12.300 248.000 1.000
12.320 236.000 1.000
12.340 248.000 1.000
12.360 261.000 1.000
12.380 251.000 1.000
12.400 228.000 1.000
12.420 241.000 1.000
12.440 236.000 1.000
12.460 245.000 1.000
12.480 238.000 1.000
12.500 243.000 1.000
12.520 243.000 1.000
12.540 247.000 1.000
12.560 240.000 1.000
12.580 249.000 1.000
12.600 236.000 1.000
12.620 246.000 1.000
12.640 259.000 1.000
12.660 261.000 1.000
12.680 254.000 1.000
12.700 248.000 1.000
12.720 271.000 1.000
12.740 246.000 1.000
12.760 233.000 1.000
12.780 233.000 1.000
12.800 249.000 1.000
12.820 270.000 1.000
12.840 265.000 1.000
12.860 251.000 1.000
12.880 238.000 1.000
12.900 249.000 1.000
12.920 257.000 1.000
12.940 244.000 1.000
12.960 240.000 1.000
12.980 238.000 1.000
13.000 242.000 1.000
13.020 235.000 1.000
13.040 238.000 1.000
13.060 232.000 1.000
13.080 236.000 1.000
13.100 238.000 1.000
13.120 237.000 1.000
13.140 267.000 1.000
13.160 271.000 1.000
13.180 257.000 1.000
13.200 244.000 1.000
13.220 254.000 1.000
13.240 249.000 1.000
13.260 248.000 1.000
13.280 238.000 1.000
13.300 232.000 1.000
13.320 235.000 1.000
13.340 255.000 1.000
13.360 250.000 1.000
13.380 257.000 1.000
13.400 262.000 1.000
13.420 262.000 1.000
13.440 246.000 1.000
13.460 252.000 1.000
13.480 248.000 1.000
13.500 248.000 1.000
13.520 234.000 1.000
13.540 231.000 1.000
13.560 229.000 1.000
13.580 247.000 1.000
13.600 263.000 1.000
13.620 239.000 1.000
13.640 245.000 1.000
13.660 247.000 1.000
13.680 230.000 1.000
13.700 249.000 1.000
13.720 250.000 1.000
13.740 240.000 1.000
13.760 242.000 1.000
13.780 247.000 1.000
13.800 251.000 1.000
13.820 235.000 1.000
13.840 233.000 1.000
13.860 248.000 1.000
13.880 251.000 1.000
13.900 248.000 1.000
13.920 244.000 1.000
13.940 250.000 1.000
13.960 248.000 1.000
13.980 255.000 1.000
14.000 251.000 1.000
14.020 260.000 1.000
14.040 247.000 1.000
14.060 243.000 1.000
14.080 244.000 1.000
14.100 274.000 1.000
14.120 262.000 1.000
14.140 247.000 1.000
14.160 247.000 1.000
14.180 279.000 1.000
14.200 256.000 1.000
14.220 249.000 1.000
14.240 256.000 1.000
14.260 256.000 1.000
14.280 248.000 1.000
14.300 239.000 1.000
14.320 255.000 1.000
14.340 250.000 1.000
14.360 253.000 1.000
14.380 261.000 1.000
14.400 274.000 1.000
14.420 250.000 1.000
14.440 265.000 1.000
14.460 253.000 1.000
14.480 248.000 1.000
14.500 243.000 1.000
14.520 234.000 1.000
14.540 245.000 1.000
14.560 273.000 1.000
14.580 277.000 1.000
14.600 259.000 1.000
14.620 271.000 1.000
14.640 266.000 1.000
14.660 245.000 1.000
14.680 259.000 1.000
14.700 273.000 1.000
14.720 276.000 1.000
14.740 281.000 1.000
14.760 278.000 1.000
14.780 276.000 1.000
14.800 265.000 1.000
14.820 276.000 1.000
14.840 257.000 1.000
14.860 255.000 1.000
14.880 266.000 1.000
14.900 258.000 1.000
14.920 268.000 1.000
14.940 276.000 1.000
14.960 281.000 1.000
14.980 272.000 1.000
15.000 280.000 1.000
15.020 276.000 1.000
15.040 283.000 1.000
15.060 278.000 1.000
15.080 251.000 1.000
15.100 250.000 1.000
15.120 247.000 1.000
15.140 262.000 1.000
15.160 269.000 1.000
15.180 294.000 1.000
15.200 294.000 1.000
15.220 276.000 1.000
15.240 296.000 1.000
15.260 280.000 1.000
15.280 271.000 1.000
15.300 253.000 1.000
15.320 270.000 1.000
15.340 275.000 1.000
15.360 283.000 1.000
15.380 277.000 1.000
15.400 254.000 1.000
15.420 268.000 1.000
15.440 281.000 1.000
15.460 283.000 1.000
15.480 273.000 1.000
15.500 285.000 1.000
15.520 276.000 1.000
15.540 272.000 1.000
15.560 265.000 1.000
15.580 278.000 1.000
15.600 287.000 1.000
15.620 292.000 1.000
15.640 272.000 1.000
15.660 276.000 1.000
15.680 274.000 1.000
15.700 287.000 1.000
15.720 289.000 1.000
15.740 290.000 1.000
15.760 276.000 1.000
15.780 270.000 1.000
15.800 280.000 1.000
15.820 288.000 1.000
15.840 272.000 1.000
15.860 288.000 1.000
15.880 295.000 1.000
15.900 288.000 1.000
15.920 277.000 1.000
15.940 281.000 1.000
15.960 294.000 1.000
15.980 299.000 1.000
16.000 281.000 1.000
16.020 278.000 1.000
16.040 295.000 1.000
16.060 308.000 1.000
16.080 284.000 1.000
16.100 286.000 1.000
16.120 301.000 1.000
16.140 297.000 1.000
16.160 282.000 1.000
16.180 284.000 1.000
16.200 307.000 1.000
16.220 285.000 1.000
16.240 275.000 1.000
16.260 299.000 1.000
16.280 291.000 1.000
16.300 307.000 1.000
16.320 311.000 1.000
16.340 298.000 1.000
16.360 285.000 1.000
16.380 292.000 1.000
16.400 290.000 1.000
16.420 320.000 1.000
16.440 295.000 1.000
16.460 278.000 1.000
16.480 290.000 1.000
16.500 306.000 1.000
16.520 274.000 1.000
16.540 300.000 1.000
16.560 285.000 1.000
16.580 313.000 1.000
16.600 308.000 1.000
16.620 295.000 1.000
16.640 299.000 1.000
16.660 301.000 1.000
16.680 304.000 1.000
16.700 290.000 1.000
16.720 315.000 1.000
16.740 320.000 1.000
16.760 319.000 1.000
16.780 306.000 1.000
16.800 286.000 1.000
16.820 310.000 1.000
16.840 331.000 1.000
16.860 313.000 1.000
16.880 303.000 1.000
16.900 307.000 1.000
16.920 318.000 1.000
16.940 307.000 1.000
16.960 334.000 1.000
16.980 338.000 1.000
17.000 313.000 1.000
17.020 291.000 1.000
17.040 302.000 1.000
17.060 319.000 1.000
17.080 285.000 1.000
17.100 308.000 1.000
17.120 316.000 1.000
17.140 310.000 1.000
17.160 313.000 1.000
17.180 333.000 1.000
17.200 302.000 1.000
17.220 323.000 1.000
17.240 335.000 1.000
17.260 312.000 1.000
17.280 344.000 1.000
17.300 340.000 1.000
17.320 314.000 1.000
17.340 311.000 1.000
17.360 310.000 1.000
17.380 314.000 1.000
17.400 308.000 1.000
17.420 300.000 1.000
17.440 311.000 1.000
17.460 323.000 1.000
17.480 316.000 1.000
17.500 315.000 1.000
17.520 324.000 1.000
17.540 306.000 1.000
17.560 313.000 1.000
17.580 326.000 1.000
17.600 334.000 1.000
17.620 355.000 1.000
17.640 337.000 1.000
17.660 328.000 1.000
17.680 339.000 1.000
17.700 351.000 1.000
17.720 342.000 1.000
17.740 342.000 1.000
17.760 341.000 1.000
17.780 329.000 1.000
17.800 328.000 1.000
17.820 341.000 1.000
17.840 342.000 1.000
17.860 333.000 1.000
17.880 335.000 1.000
17.900 332.000 1.000
17.920 309.000 1.000
17.940 336.000 1.000
17.960 344.000 1.000
17.980 341.000 1.000
18.000 339.000 1.000
18.020 332.000 1.000
18.040 324.000 1.000
18.060 315.000 1.000
18.080 332.000 1.000
18.100 340.000 1.000
18.120 339.000 1.000
18.140 339.000 1.000
18.160 335.000 1.000
18.180 339.000 1.000
18.200 333.000 1.000
18.220 340.000 1.000
18.240 345.000 1.000
18.260 347.000 1.000
18.280 343.000 1.000
18.300 335.000 1.000
18.320 342.000 1.000
18.340 347.000 1.000
18.360 332.000 1.000
18.380 346.000 1.000
18.400 365.000 1.000
18.420 348.000 1.000
18.440 356.000 1.000
18.460 350.000 1.000
18.480 345.000 1.000
18.500 340.000 1.000
18.520 330.000 1.000
18.540 343.000 1.000
18.560 332.000 1.000
18.580 345.000 1.000
18.600 376.000 1.000
18.620 389.000 1.000
18.640 358.000 1.000
18.660 346.000 1.000
18.680 362.000 1.000
18.700 377.000 1.000
18.720 390.000 1.000
18.740 372.000 1.000
18.760 397.000 1.000
18.780 364.000 1.000
18.800 364.000 1.000
18.820 384.000 1.000
18.840 378.000 1.000
18.860 355.000 1.000
18.880 358.000 1.000
18.900 362.000 1.000
18.920 349.000 1.000
18.940 336.000 1.000
18.960 367.000 1.000
18.980 375.000 1.000
19.000 363.000 1.000
19.020 370.000 1.000
19.040 369.000 1.000
19.060 374.000 1.000
19.080 367.000 1.000
19.100 355.000 1.000
19.120 362.000 1.000
19.140 363.000 1.000
19.160 347.000 1.000
19.180 356.000 1.000
19.200 369.000 1.000
19.220 373.000 1.000
19.240 386.000 1.000
19.260 392.000 1.000
19.280 370.000 1.000
19.300 371.000 1.000
19.320 397.000 1.000
19.340 414.000 1.000
19.360 383.000 1.000
19.380 380.000 1.000
19.400 401.000 1.000
19.420 372.000 1.000
19.440 381.000 1.000
19.460 374.000 1.000
19.480 402.000 1.000
19.500 407.000 1.000
19.520 379.000 1.000
19.540 377.000 1.000
19.560 391.000 1.000
19.580 386.000 1.000
19.600 367.000 1.000
19.620 372.000 1.000
19.640 374.000 1.000
19.660 400.000 1.000
19.680 413.000 1.000
19.700 411.000 1.000
19.720 366.000 1.000
19.740 391.000 1.000
19.760 405.000 1.000
19.780 387.000 1.000
19.800 397.000 1.000
19.820 389.000 1.000
19.840 401.000 1.000
19.860 435.000 1.000
19.880 405.000 1.000
19.900 429.000 1.000
19.920 402.000 1.000
19.940 398.000 1.000
19.960 394.000 1.000
19.980 387.000 1.000
20.000 376.000 1.000
20.020 396.000 1.000
20.040 393.000 1.000
20.060 403.000 1.000
20.080 381.000 1.000
20.100 386.000 1.000
20.120 427.000 1.000
20.140 406.000 1.000
20.160 414.000 1.000
20.180 429.000 1.000
20.200 405.000 1.000
20.220 402.000 1.000
20.240 407.000 1.000
20.260 421.000 1.000
20.280 404.000 1.000
20.300 415.000 1.000
20.320 410.000 1.000
20.340 419.000 1.000
20.360 431.000 1.000
20.380 436.000 1.000
20.400 403.000 1.000
20.420 415.000 1.000
20.440 413.000 1.000
20.460 389.000 1.000
20.480 400.000 1.000
20.500 386.000 1.000
20.520 369.000 1.000
20.540 399.000 1.000
20.560 402.000 1.000
20.580 411.000 1.000
20.600 430.000 1.000
20.620 421.000 1.000
20.640 423.000 1.000
20.660 415.000 1.000
20.680 427.000 1.000
20.700 429.000 1.000
20.720 407.000 1.000
20.740 407.000 1.000
20.760 407.000 1.000
20.780 407.000 1.000
20.800 423.000 1.000
20.820 425.000 1.000
20.840 433.000 1.000
20.860 424.000 1.000
20.880 421.000 1.000
20.900 400.000 1.000
20.920 379.000 1.000
20.940 373.000 1.000
20.960 400.000 1.000
20.980 418.000 1.000
21.000 427.000 1.000
21.020 426.000 1.000
21.040 407.000 1.000
21.060 422.000 1.000
21.080 402.000 1.000
21.100 432.000 1.000
21.120 421.000 1.000
21.140 406.000 1.000
21.160 396.000 1.000
21.180 428.000 1.000
21.200 416.000 1.000
21.220 408.000 1.000
21.240 426.000 1.000
21.260 441.000 1.000
21.280 466.000 1.000
21.300 424.000 1.000
21.320 391.000 1.000
21.340 412.000 1.000
21.360 402.000 1.000
21.380 423.000 1.000
21.400 421.000 1.000
21.420 454.000 1.000
21.440 466.000 1.000
21.460 455.000 1.000
21.480 445.000 1.000
21.500 405.000 1.000
21.520 411.000 1.000
21.540 451.000 1.000
21.560 436.000 1.000
21.580 459.000 1.000
21.600 443.000 1.000
21.620 435.000 1.000
21.640 420.000 1.000
21.660 435.000 1.000
21.680 447.000 1.000
21.700 459.000 1.000
21.720 469.000 1.000
21.740 450.000 1.000
21.760 447.000 1.000
21.780 424.000 1.000
21.800 452.000 1.000
21.820 477.000 1.000
21.840 438.000 1.000
21.860 439.000 1.000
21.880 452.000 1.000
21.900 450.000 1.000
21.920 470.000 1.000
21.940 458.000 1.000
21.960 448.000 1.000
21.980 466.000 1.000
22.000 435.000 1.000
22.020 420.000 1.000
22.040 453.000 1.000
22.060 443.000 1.000
22.080 449.000 1.000
22.100 462.000 1.000
22.120 459.000 1.000
22.140 438.000 1.000
22.160 444.000 1.000
22.180 466.000 1.000
22.200 444.000 1.000
22.220 456.000 1.000
22.240 477.000 1.000
22.260 449.000 1.000
22.280 454.000 1.000
22.300 435.000 1.000
22.320 412.000 1.000
22.340 439.000 1.000
22.360 462.000 1.000
22.380 462.000 1.000
22.400 476.000 1.000
22.420 464.000 1.000
22.440 471.000 1.000
22.460 465.000 1.000
22.480 439.000 1.000
22.500 454.000 1.000
22.520 466.000 1.000
22.540 481.000 1.000
22.560 483.000 1.000
22.580 481.000 1.000
22.600 507.000 1.000
22.620 523.000 1.000
22.640 540.000 1.000
22.660 545.000 1.000
22.680 582.000 1.000
22.700 570.000 1.000
22.720 544.000 1.000
22.740 532.000 1.000
22.760 507.000 1.000
22.780 504.000 1.000
22.800 495.000 1.000
22.820 489.000 1.000
22.840 479.000 1.000
22.860 475.000 1.000
22.880 474.000 1.000
22.900 452.000 1.000
22.920 471.000 1.000
22.940 472.000 1.000
22.960 459.000 1.000
22.980 454.000 1.000
23.000 472.000 1.000
23.020 482.000 1.000
23.040 511.000 1.000
23.060 487.000 1.000
23.080 473.000 1.000
23.100 488.000 1.000
23.120 481.000 1.000
23.140 511.000 1.000
23.160 492.000 1.000
23.180 486.000 1.000
23.200 471.000 1.000
23.220 469.000 1.000
23.240 504.000 1.000
23.260 494.000 1.000
23.280 501.000 1.000
23.300 501.000 1.000
23.320 489.000 1.000
23.340 511.000 1.000
23.360 512.000 1.000
23.380 544.000 1.000
23.400 523.000 1.000
23.420 499.000 1.000
23.440 506.000 1.000
23.460 510.000 1.000
23.480 506.000 1.000
23.500 506.000 1.000
23.520 557.000 1.000
23.540 551.000 1.000
23.560 563.000 1.000
23.580 564.000 1.000
23.600 594.000 1.000
23.620 592.000 1.000
23.640 589.000 1.000
23.660 593.000 1.000
23.680 635.000 1.000
23.700 606.000 1.000
23.720 602.000 1.000
23.740 587.000 1.000
23.760 565.000 1.000
23.780 539.000 1.000
23.800 534.000 1.000
23.820 565.000 1.000
23.840 554.000 1.000
23.860 527.000 1.000
23.880 525.000 1.000
23.900 542.000 1.000
23.920 552.000 1.000
23.940 566.000 1.000
23.960 582.000 1.000
23.980 584.000 1.000
24.000 565.000 1.000
24.020 578.000 1.000
24.040 594.000 1.000
24.060 624.000 1.000
24.080 606.000 1.000
24.100 617.000 1.000
24.120 600.000 1.000
24.140 608.000 1.000
24.160 612.000 1.000
24.180 607.000 1.000
24.200 618.000 1.000
24.220 607.000 1.000
24.240 615.000 1.000
24.260 671.000 1.000
24.280 660.000 1.000
24.300 632.000 1.000
24.320 658.000 1.000
24.340 679.000 1.000
24.360 674.000 1.000
24.380 710.000 1.000
24.400 739.000 1.000
24.420 717.000 1.000
24.440 750.000 1.000
24.460 771.000 1.000
24.480 770.000 1.000
24.500 754.000 1.000
24.520 742.000 1.000
24.540 728.000 1.000
24.560 754.000 1.000
24.580 766.000 1.000
24.600 774.000 1.000
24.620 742.000 1.000
24.640 810.000 1.000
24.660 783.000 1.000
24.680 810.000 1.000
24.700 825.000 1.000
24.720 822.000 1.000
24.740 868.000 1.000
24.760 901.000 1.000
24.780 919.000 1.000
24.800 929.000 1.000
24.820 935.000 1.000
24.840 954.000 1.000
24.860 955.000 1.000
24.880 950.000 1.000
24.900 989.000 1.000
24.920 1011.000 1.000
24.940 1014.000 1.000
24.960 1032.000 1.000
24.980 1023.000 1.000
25.000 1076.000 1.000
25.020 1096.000 1.000
25.040 1132.000 1.000
25.060 1146.000 1.000
25.080 1157.000 1.000
25.100 1175.000 1.000
25.120 1232.000 1.000
25.140 1243.000 1.000
25.160 1278.000 1.000
25.180 1324.000 1.000
25.200 1316.000 1.000
25.220 1351.000 1.000
25.240 1375.000 1.000
25.260 1441.000 1.000
25.280 1407.000 1.000
25.300 1427.000 1.000
25.320 1466.000 1.000
25.340 1511.000 1.000
25.360 1518.000 1.000
25.380 1615.000 1.000
25.400 1655.000 1.000
25.420 1692.000 1.000
25.440 1699.000 1.000
25.460 1753.000 1.000
25.480 1797.000 1.000
25.500 1855.000 1.000
25.520 1899.000 1.000
25.540 1950.000 1.000
25.560 1940.000 1.000
25.580 1993.000 1.000
25.600 2103.000 1.000
25.620 2172.000 1.000
25.640 2151.000 1.000
25.660 2209.000 1.000
25.680 2251.000 1.000
25.700 2322.000 1.000
25.720 2358.000 1.000
25.740 2401.000 1.000
25.760 2397.000 1.000
25.780 2400.000 1.000
25.800 2514.000 1.000
25.820 2560.000 1.000
25.840 2609.000 1.000
25.860 2638.000 1.000
25.880 2661.000 1.000
25.900 2690.000 1.000
25.920 2764.000 1.000
25.940 2819.000 1.000
25.960 2851.000 1.000
25.980 2874.000 1.000
26.000 2926.000 1.000
26.020 3015.000 1.000
26.040 3069.000 1.000
26.060 3014.000 1.000
26.080 3079.000 1.000
26.100 3199.000 1.000
26.120 3273.000 1.000
26.140 3337.000 1.000
26.160 3501.000 1.000
26.180 3525.000 1.000
26.200 3815.000 1.000
26.220 3956.000 1.000
26.240 4097.000 1.000
26.260 4383.000 1.000
26.280 4809.000 1.000
26.300 5298.000 1.000
26.320 5747.000 1.000
26.340 6380.000 1.000
26.360 7226.000 1.000
26.380 8182.000 1.000
26.400 9062.000 1.000
26.420 9878.000 1.000
26.440 10715.000 1.000
26.460 11028.000 1.000
26.480 11164.000 1.000
26.500 10794.000 1.000
26.520 10195.000 1.000
26.540 9197.000 1.000
26.560 7852.000 1.000
26.580 6658.000 1.000
26.600 5499.000 1.000
26.620 4492.000 1.000
26.640 3649.000 1.000
26.660 3013.000 1.000
26.680 2535.000 1.000
26.700 2198.000 1.000
26.720 2042.000 1.000
26.740 1805.000 1.000
26.760 1680.000 1.000
26.780 1612.000 1.000
26.800 1475.000 1.000
26.820 1351.000 1.000
26.840 1304.000 1.000
26.860 1212.000 1.000
26.880 1149.000 1.000
26.900 1130.000 1.000
26.920 1095.000 1.000
26.940 1084.000 1.000
26.960 1013.000 1.000
26.980 1014.000 1.000
27.000 955.000 1.000
27.020 903.000 1.000
27.040 870.000 1.000
27.060 820.000 1.000
27.080 794.000 1.000
27.100 812.000 1.000
27.120 806.000 1.000
27.140 772.000 1.000
27.160 729.000 1.000
27.180 740.000 1.000
27.200 730.000 1.000
27.220 705.000 1.000
27.240 684.000 1.000
27.260 682.000 1.000
27.280 615.000 1.000
27.300 640.000 1.000
27.320 601.000 1.000
27.340 618.000 1.000
27.360 612.000 1.000
27.380 631.000 1.000
27.400 596.000 1.000
27.420 596.000 1.000
27.440 599.000 1.000
27.460 561.000 1.000
27.480 567.000 1.000
27.500 527.000 1.000
27.520 499.000 1.000
27.540 518.000 1.000
27.560 531.000 1.000
27.580 488.000 1.000
27.600 524.000 1.000
27.620 509.000 1.000
27.640 494.000 1.000
27.660 470.000 1.000
27.680 466.000 1.000
27.700 461.000 1.000
27.720 482.000 1.000
27.740 484.000 1.000
27.760 459.000 1.000
27.780 471.000 1.000
27.800 471.000 1.000
27.820 483.000 1.000
27.840 425.000 1.000
27.860 428.000 1.000
27.880 432.000 1.000
27.900 435.000 1.000
27.920 423.000 1.000
27.940 405.000 1.000
27.960 433.000 1.000
27.980 447.000 1.000
28.000 420.000 1.000
28.020 401.000 1.000
28.040 387.000 1.000
