*RAS_DATA_START
*RAS_HEADER_START
*CORR_POS_DB_NAME "DTEX_11112016"
*CORR_POS_GONIO_RADIUS ""
*CORR_POS_NODE_INDEX01 ""
*CORR_POS_NODE_INDEX02 ""
*CORR_POS_NODE_INDEX03 ""
*CORR_POS_NODE_INDEX04 ""
*CORR_POS_NODE_INDEX05 ""
*CORR_POS_NODE_INDEX06 ""
*CORR_POS_NODE_INDEX07 ""
*CORR_POS_NODE_INDEX08 ""
*CORR_POS_NODE_INDEX09 ""
*CORR_POS_NODE_INDEX10 ""
*CORR_POS_NODE_INDEX11 ""
*CORR_POS_NODE_LABEL01 "Si(111)"
*CORR_POS_NODE_LABEL02 "Si(220)"
*CORR_POS_NODE_LABEL03 "Si(311)"
*CORR_POS_NODE_LABEL04 "Si(400)"
*CORR_POS_NODE_LABEL05 "Si(331)"
*CORR_POS_NODE_LABEL06 "Si(422)"
*CORR_POS_NODE_LABEL07 "Si(511)"
*CORR_POS_NODE_LABEL08 "Si(440)"
*CORR_POS_NODE_LABEL09 "Si(531)"
*CORR_POS_NODE_LABEL10 "Si(620)"
*CORR_POS_NODE_LABEL11 "Si(533)"
*CORR_POS_NODE_POS_CALC01 "28.4137"
*CORR_POS_NODE_POS_CALC02 "47.2707"
*CORR_POS_NODE_POS_CALC03 "56.0883"
*CORR_POS_NODE_POS_CALC04 "69.0934"
*CORR_POS_NODE_POS_CALC05 "76.3385"
*CORR_POS_NODE_POS_CALC06 "87.9915"
*CORR_POS_NODE_POS_CALC07 "94.9137"
*CORR_POS_NODE_POS_CALC08 "106.67"
*CORR_POS_NODE_POS_CALC09 "114.054"
*CORR_POS_NODE_POS_CALC10 "127.508"
*CORR_POS_NODE_POS_CALC11 "136.858"
*CORR_POS_NODE_POS_MEAS01 "28.3712"
*CORR_POS_NODE_POS_MEAS02 "47.2304"
*CORR_POS_NODE_POS_MEAS03 "56.0465"
*CORR_POS_NODE_POS_MEAS04 "69.0523"
*CORR_POS_NODE_POS_MEAS05 "76.2993"
*CORR_POS_NODE_POS_MEAS06 "87.9512"
*CORR_POS_NODE_POS_MEAS07 "94.8772"
*CORR_POS_NODE_POS_MEAS08 "106.636"
*CORR_POS_NODE_POS_MEAS09 "114.028"
*CORR_POS_NODE_POS_MEAS10 "127.48"
*CORR_POS_NODE_POS_MEAS11 "136.839"
*CORR_POS_OPT_ATTR "集中法"
*CORR_POS_PARAM_MU ""
*CORR_POS_PARAM_PL ""
*CORR_POS_SEMODEL_TYPE "0"
*CORR_POS_STANDARD_TYPE ""
*CORR_POS_VALUE_ANALYZER "None"
*CORR_POS_VALUE_CMONO "None"
*CORR_POS_VALUE_IMONO "None"
*CORR_POS_VALUE_IS "0.625deg"
*CORR_POS_VALUE_ISL "10.0mm"
*CORR_POS_VALUE_ISOLLER "2.5deg"
*CORR_POS_VALUE_RS1 "13.0mm"
*CORR_POS_VALUE_RS2 "13.0mm"
*CORR_POS_VALUE_RSOLLER "2.5deg"
*CORR_POS_XG_FOCUS_L ""
*CORR_POS_XG_WAVE_TYPE ""
*CORR_POS_XG_WAVE_VALUE ""
*DISP_FMT_X "%.2f"
*DISP_FMT_Y "%.0f"
*DISP_FULLSCALE "5376.0000000000"
*DISP_LINE_COLOR "255.0000000000"
*DISP_LINE_STYLE "0.0000000000"
*DISP_LINE_WIDTH "0.2500000000"
*DISP_NOTE "Collected Data-4"
*DISP_OFFSET_Y "0.0000000000"
*DISP_PEAKSEARCH_UNIT_Y "COUNTS"
*DISP_RANGE_BOTTOM "0.0000000000"
*DISP_RANGE_LEFT "20.0000000000"
*DISP_RANGE_LOGCUTOFF "0.0100000000"
*DISP_RANGE_RIGHT "90.0000000000"
*DISP_RANGE_TOP "5376.0000000000"
*DISP_SCALE_MODE_Y "0.0000000000"
*DISP_TAB_NAME "Theta/2-Theta"
*DISP_TITLE_Y "Intensity"
*DISP_UNIT_Y "COUNTS"
*DISP_WINDOW_NAME "MSG_MACROENGINE"
*FILE_COMMENT " "
*FILE_MD5 ""
*FILE_MEMO " "
*FILE_OPERATOR "MiniFlex"
*FILE_PART_ID "MEAS_PBEA_00223"
*FILE_SAMPLE "cu2o_012_20-90_2theta_speed20_step0.02"
*FILE_TYPE "RAS_RAW"
*FILE_USERGROUP "System User"
*FILE_VERSION "1.0000000000"
*HW_ATTACHMENT_ID "ATT1031"
*HW_ATTACHMENT_NAME "6サンプルチェンジャ|ASC-6"
*HW_COUNTER_ID-0 "CUT0025"
*HW_COUNTER_ID-1 "CUT0020"
*HW_COUNTER_ID-2 "CUT0020"
*HW_COUNTER_ID-3 "CMC0021"
*HW_COUNTER_NAME-0 "D/teX Ultra|D/teX Ultra"
*HW_COUNTER_NAME-1 "None|None"
*HW_COUNTER_NAME-2 "None|None"
*HW_COUNTER_NAME-3 "検出器モノクロメータ|Detector monochromator"
*HW_COUNTER_SELECT_NAME "D/teX Ultra|D/teX Ultra"
*HW_GONIOMETER_ID "GON0070"
*HW_GONIOMETER_NAME "MiniFlex 300/600|MiniFlex 300/600"
*HW_GONIOMETER_RADIUS-0 "79.0"
*HW_GONIOMETER_RADIUS-1 "91.5"
*HW_GONIOMETER_RADIUS-2 "150.0"
*HW_GONIOMETER_RADIUS-3 "0"
*HW_GONIOMETER_RADIUS-4 "103.4"
*HW_GONIOMETER_RADIUS-5 "150.0"
*HW_GONIOMETER_RADIUS-6 "46.6"
*HW_GONIOMETER_RADIUS-7 "160.0"
*HW_I_OPT_ID-0 "ISL0021"
*HW_I_OPT_ID-1 "ISO0021"
*HW_I_OPT_NAME-0 "発散スリット|Divergence slit"
*HW_I_OPT_NAME-1 "入射平行スリット|Incident parallel slit"
*HW_R_ATTENUATER_AUTOMODE "0"
*HW_R_OPT_ID-0 "RSS0021"
*HW_R_OPT_ID-1 "RSO0021"
*HW_R_OPT_ID-2 "RRS0021"
*HW_R_OPT_NAME-0 "散乱スリット|Scattering slit"
*HW_R_OPT_NAME-1 "受光平行スリット|Receiving soller slit"
*HW_R_OPT_NAME-2 "受光スリット|Receiving slit"
*HW_SAMPLE_HOLDER_ID "SMP0000"
*HW_SAMPLE_HOLDER_NAME "無し|None"
*HW_XG_CURRENT_MAX "15"
*HW_XG_CURRENT_MIN "2"
*HW_XG_CURRENT_RESOLUTION "1"
*HW_XG_CURRENT_UNIT "mA"
*HW_XG_FOCUS "1mm x 10mm"
*HW_XG_FOCUS_TYPE "Normal"
*HW_XG_ID "1060"
*HW_XG_NAME "300W/600W 封入管-B|300W/600W Sealed tube-B"
*HW_XG_TARGET_ATOMIC_NUMBER "29.0000000000"
*HW_XG_TARGET_NAME "Cu"
*HW_XG_TYPE "Hermetic"
*HW_XG_VOLTAGE_MAX "40"
*HW_XG_VOLTAGE_MIN "20"
*HW_XG_VOLTAGE_RESOLUTION "1"
*HW_XG_VOLTAGE_UNIT "kV"
*HW_XG_WATT_MAX "1"
*HW_XG_WATT_UNIT "kW"
*HW_XG_WAVE_LENGTH_ALPHA1 "1.540593"
*HW_XG_WAVE_LENGTH_ALPHA2 "1.544414"
*HW_XG_WAVE_LENGTH_BETA "1.392250"
*MEAS_COND_AXIS_NAME-0 "Theta/2-Theta"
*MEAS_COND_AXIS_NAME-1 "Spin"
*MEAS_COND_AXIS_NAME-2 "Change"
*MEAS_COND_AXIS_NAME-3 "Soller(inc.)"
*MEAS_COND_AXIS_NAME-4 "IHS"
*MEAS_COND_AXIS_NAME-5 "DS"
*MEAS_COND_AXIS_NAME-6 "SS"
*MEAS_COND_AXIS_NAME-7 "Soller(rec.)"
*MEAS_COND_AXIS_NAME-8 "RS"
*MEAS_COND_AXIS_NAME-9 "Filter"
*MEAS_COND_AXIS_NAME-10 "Monochromator"
*MEAS_COND_AXIS_NAME-11 "PHA"
*MEAS_COND_AXIS_NAME_INTERNAL-0 "TwoThetaTheta"
*MEAS_COND_AXIS_NAME_INTERNAL-1 "Spin"
*MEAS_COND_AXIS_NAME_INTERNAL-2 "Change"
*MEAS_COND_AXIS_NAME_INTERNAL-3 "IncidentSollerSlit"
*MEAS_COND_AXIS_NAME_INTERNAL-4 "IncidentAxdSlit"
*MEAS_COND_AXIS_NAME_INTERNAL-5 "IncidentSlitBox"
*MEAS_COND_AXIS_NAME_INTERNAL-6 "ReceivingSlitBox1"
*MEAS_COND_AXIS_NAME_INTERNAL-7 "ReceivingSollerSlit"
*MEAS_COND_AXIS_NAME_INTERNAL-8 "ReceivingSlitBox2"
*MEAS_COND_AXIS_NAME_INTERNAL-9 "Filter"
*MEAS_COND_AXIS_NAME_INTERNAL-10 "CounterMonochromator"
*MEAS_COND_AXIS_NAME_INTERNAL-11 "PHA"
*MEAS_COND_AXIS_NAME_MAGICNO-0 "268632064.0000000000"
*MEAS_COND_AXIS_NAME_MAGICNO-1 "16842752.0000000000"
*MEAS_COND_AXIS_NAME_MAGICNO-2 "16842752.0000000000"
*MEAS_COND_AXIS_NAME_MAGICNO-3 "20971521.0000000000"
*MEAS_COND_AXIS_NAME_MAGICNO-4 "22020097.0000000000"
*MEAS_COND_AXIS_NAME_MAGICNO-5 "22020097.0000000000"
*MEAS_COND_AXIS_NAME_MAGICNO-6 "23068673.0000000000"
*MEAS_COND_AXIS_NAME_MAGICNO-7 "20971521.0000000000"
*MEAS_COND_AXIS_NAME_MAGICNO-8 "23068673.0000000000"
*MEAS_COND_AXIS_NAME_MAGICNO-9 "20971521.0000000000"
*MEAS_COND_AXIS_NAME_MAGICNO-10 "20971521.0000000000"
*MEAS_COND_AXIS_NAME_MAGICNO-11 "0.0000000000"
*MEAS_COND_AXIS_OFFSET-0 "0.0000000000"
*MEAS_COND_AXIS_OFFSET-1 "-"
*MEAS_COND_AXIS_OFFSET-2 "-"
*MEAS_COND_AXIS_OFFSET-3 "-"
*MEAS_COND_AXIS_OFFSET-4 "-"
*MEAS_COND_AXIS_OFFSET-5 "-"
*MEAS_COND_AXIS_OFFSET-6 "-"
*MEAS_COND_AXIS_OFFSET-7 "-"
*MEAS_COND_AXIS_OFFSET-8 "-"
*MEAS_COND_AXIS_OFFSET-9 "-"
*MEAS_COND_AXIS_OFFSET-10 "-"
*MEAS_COND_AXIS_OFFSET-11 "-"
*MEAS_COND_AXIS_POSITION-0 "10.0000000000"
*MEAS_COND_AXIS_POSITION-1 "0.0000000000"
*MEAS_COND_AXIS_POSITION-2 "4.0000000000"
*MEAS_COND_AXIS_POSITION-3 "2.5deg"
*MEAS_COND_AXIS_POSITION-4 "2.0mm"
*MEAS_COND_AXIS_POSITION-5 "0.625deg"
*MEAS_COND_AXIS_POSITION-6 "13.0mm(Open)"
*MEAS_COND_AXIS_POSITION-7 "2.5deg"
*MEAS_COND_AXIS_POSITION-8 "13.0mm"
*MEAS_COND_AXIS_POSITION-9 "K-beta(x1)"
*MEAS_COND_AXIS_POSITION-10 "None"
*MEAS_COND_AXIS_POSITION-11 "41.0000000000"
*MEAS_COND_AXIS_UNIT-0 "deg"
*MEAS_COND_AXIS_UNIT-1 ""
*MEAS_COND_AXIS_UNIT-2 ""
*MEAS_COND_AXIS_UNIT-3 ""
*MEAS_COND_AXIS_UNIT-4 ""
*MEAS_COND_AXIS_UNIT-5 ""
*MEAS_COND_AXIS_UNIT-6 ""
*MEAS_COND_AXIS_UNIT-7 ""
*MEAS_COND_AXIS_UNIT-8 ""
*MEAS_COND_AXIS_UNIT-9 ""
*MEAS_COND_AXIS_UNIT-10 ""
*MEAS_COND_AXIS_UNIT-11 "div"
*MEAS_COND_CORRECTION_SLIT_COUNTERMONO "None"
*MEAS_COND_CORRECTION_SLIT_DS "0.625deg"
*MEAS_COND_CORRECTION_SLIT_FILTER "None"
*MEAS_COND_CORRECTION_SLIT_IHS "2.0mm"
*MEAS_COND_CORRECTION_SLIT_RS "13.0mm"
*MEAS_COND_CORRECTION_SLIT_SOLLER_INC "2.5deg"
*MEAS_COND_CORRECTION_SLIT_SOLLER_REC "2.5deg"
*MEAS_COND_CORRECTION_SLIT_SS "13.0mm"
*MEAS_COND_COUNTER_CNTLOSS_CORR "0.0000000000"
*MEAS_COND_COUNTER_PHABASE "41.0000000000"
*MEAS_COND_COUNTER_PHAWINDOW "14.0000000000"
*MEAS_COND_COUNTER_PHA_UNIT "div"
*MEAS_COND_COUNTER_TAUDIFF "0.2500000000"
*MEAS_COND_COUNTER_TAUINT "0.7500000000"
*MEAS_COND_IRRADIATION_MODE "OFF"
*MEAS_COND_IRRADIATION_WIDTH ""
*MEAS_COND_OPT_ATTR " "
*MEAS_COND_OPT_NAME ""
*MEAS_COND_UNSYMMETRIC_MODE "OFF"
*MEAS_COND_XG_CURRENT "15.0000000000"
*MEAS_COND_XG_VOLTAGE "40.0000000000"
*MEAS_COND_XG_WAVE_TYPE "Ka"
*MEAS_DATA_COUNT "3501.0000000000"
*MEAS_SCAN_AXIS_X "Theta/2-Theta"
*MEAS_SCAN_AXIS_X_INTERNAL "TwoThetaTheta"
*MEAS_SCAN_END_TIME "09/06/17 11:58:04"
*MEAS_SCAN_MODE "CONTINUOUS"
*MEAS_SCAN_MONITOR "0"
*MEAS_SCAN_RESOLUTION_X "0.005"
*MEAS_SCAN_SPEED "20.000"
*MEAS_SCAN_SPEED_UNIT "deg/min"
*MEAS_SCAN_SPEED_USER "20.000"
*MEAS_SCAN_START "20.0000000000"
*MEAS_SCAN_START_TIME "09/06/17 11:54:02"
*MEAS_SCAN_STEP "0.0200000000"
*MEAS_SCAN_STOP "90.0000000000"
*MEAS_SCAN_UNIT_X "deg"
*MEAS_SCAN_UNIT_Y "counts"
*SLIT_SYSTEM "0"
*RAS_HEADER_END
*RAS_INT_START
20.000 154.000 1.000
20.020 154.000 1.000
20.040 154.000 1.000
20.060 160.000 1.000
20.080 147.000 1.000
20.100 152.000 1.000
20.120 148.000 1.000
20.140 145.000 1.000
20.160 142.000 1.000
20.180 147.000 1.000
20.200 148.000 1.000
20.220 147.000 1.000
20.240 138.000 1.000
20.260 142.000 1.000
20.280 142.000 1.000
20.300 141.000 1.000
20.320 128.000 1.000
20.340 138.000 1.000
20.360 144.000 1.000
20.380 144.000 1.000
20.400 146.000 1.000
20.420 136.000 1.000
20.440 120.000 1.000
20.460 142.000 1.000
20.480 158.000 1.000
20.500 151.000 1.000
20.520 141.000 1.000
20.540 136.000 1.000
20.560 152.000 1.000
20.580 152.000 1.000
20.600 132.000 1.000
20.620 137.000 1.000
20.640 136.000 1.000
20.660 156.000 1.000
20.680 160.000 1.000
20.700 152.000 1.000
20.720 149.000 1.000
20.740 142.000 1.000
20.760 149.000 1.000
20.780 152.000 1.000
20.800 149.000 1.000
20.820 158.000 1.000
20.840 146.000 1.000
20.860 138.000 1.000
20.880 140.000 1.000
20.900 141.000 1.000
20.920 140.000 1.000
20.940 142.000 1.000
20.960 147.000 1.000
20.980 140.000 1.000
21.000 141.000 1.000
21.020 146.000 1.000
21.040 150.000 1.000
21.060 141.000 1.000
21.080 142.000 1.000
21.100 140.000 1.000
21.120 157.000 1.000
21.140 144.000 1.000
21.160 150.000 1.000
21.180 155.000 1.000
21.200 160.000 1.000
21.220 163.000 1.000
21.240 168.000 1.000
21.260 178.000 1.000
21.280 165.000 1.000
21.300 159.000 1.000
21.320 161.000 1.000
21.340 151.000 1.000
21.360 152.000 1.000
21.380 135.000 1.000
21.400 150.000 1.000
21.420 171.000 1.000
21.440 168.000 1.000
21.460 148.000 1.000
21.480 150.000 1.000
21.500 155.000 1.000
21.520 150.000 1.000
21.540 151.000 1.000
21.560 158.000 1.000
21.580 153.000 1.000
21.600 164.000 1.000
21.620 146.000 1.000
21.640 149.000 1.000
21.660 161.000 1.000
21.680 161.000 1.000
21.700 164.000 1.000
21.720 161.000 1.000
21.740 157.000 1.000
21.760 158.000 1.000
21.780 148.000 1.000
21.800 151.000 1.000
21.820 151.000 1.000
21.840 157.000 1.000
21.860 161.000 1.000
21.880 168.000 1.000
21.900 161.000 1.000
21.920 153.000 1.000
21.940 157.000 1.000
21.960 144.000 1.000
21.980 154.000 1.000
22.000 151.000 1.000
22.020 147.000 1.000
22.040 176.000 1.000
22.060 169.000 1.000
22.080 154.000 1.000
22.100 146.000 1.000
22.120 156.000 1.000
22.140 157.000 1.000
22.160 164.000 1.000
22.180 172.000 1.000
22.200 164.000 1.000
22.220 175.000 1.000
22.240 163.000 1.000
22.260 143.000 1.000
22.280 163.000 1.000
22.300 156.000 1.000
22.320 162.000 1.000
22.340 158.000 1.000
22.360 154.000 1.000
22.380 163.000 1.000
22.400 159.000 1.000
22.420 158.000 1.000
22.440 155.000 1.000
22.460 169.000 1.000
22.480 149.000 1.000
22.500 160.000 1.000
22.520 169.000 1.000
22.540 160.000 1.000
22.560 177.000 1.000
22.580 190.000 1.000
22.600 156.000 1.000
22.620 159.000 1.000
22.640 160.000 1.000
22.660 171.000 1.000
22.680 181.000 1.000
22.700 169.000 1.000
22.720 168.000 1.000
22.740 164.000 1.000
22.760 189.000 1.000
22.780 162.000 1.000
22.800 151.000 1.000
22.820 177.000 1.000
22.840 172.000 1.000
22.860 183.000 1.000
22.880 169.000 1.000
22.900 170.000 1.000
22.920 181.000 1.000
22.940 154.000 1.000
22.960 177.000 1.000
22.980 181.000 1.000
23.000 178.000 1.000
23.020 166.000 1.000
23.040 176.000 1.000
23.060 175.000 1.000
23.080 163.000 1.000
23.100 176.000 1.000
23.120 170.000 1.000
23.140 197.000 1.000
23.160 200.000 1.000
23.180 186.000 1.000
23.200 174.000 1.000
23.220 196.000 1.000
23.240 196.000 1.000
23.260 175.000 1.000
23.280 181.000 1.000
23.300 194.000 1.000
23.320 191.000 1.000
23.340 174.000 1.000
23.360 190.000 1.000
23.380 190.000 1.000
23.400 193.000 1.000
23.420 198.000 1.000
23.440 202.000 1.000
23.460 194.000 1.000
23.480 190.000 1.000
23.500 196.000 1.000
23.520 204.000 1.000
23.540 191.000 1.000
23.560 195.000 1.000
23.580 212.000 1.000
23.600 224.000 1.000
23.620 216.000 1.000
23.640 208.000 1.000
23.660 206.000 1.000
23.680 217.000 1.000
23.700 193.000 1.000
23.720 196.000 1.000
23.740 196.000 1.000
23.760 189.000 1.000
23.780 197.000 1.000
23.800 201.000 1.000
23.820 231.000 1.000
23.840 208.000 1.000
23.860 220.000 1.000
23.880 217.000 1.000
23.900 213.000 1.000
23.920 215.000 1.000
23.940 247.000 1.000
23.960 222.000 1.000
23.980 225.000 1.000
24.000 225.000 1.000
24.020 205.000 1.000
24.040 219.000 1.000
24.060 230.000 1.000
24.080 243.000 1.000
24.100 243.000 1.000
24.120 248.000 1.000
24.140 252.000 1.000
24.160 237.000 1.000
24.180 247.000 1.000
24.200 246.000 1.000
24.220 260.000 1.000
24.240 274.000 1.000
24.260 274.000 1.000
24.280 263.000 1.000
24.300 264.000 1.000
24.320 267.000 1.000
24.340 261.000 1.000
24.360 268.000 1.000
24.380 286.000 1.000
24.400 285.000 1.000
24.420 294.000 1.000
24.440 300.000 1.000
24.460 299.000 1.000
24.480 317.000 1.000
24.500 296.000 1.000
24.520 307.000 1.000
24.540 299.000 1.000
24.560 321.000 1.000
24.580 307.000 1.000
24.600 319.000 1.000
24.620 334.000 1.000
24.640 342.000 1.000
24.660 367.000 1.000
24.680 366.000 1.000
24.700 351.000 1.000
24.720 336.000 1.000
24.740 369.000 1.000
24.760 383.000 1.000
24.780 364.000 1.000
24.800 374.000 1.000
24.820 396.000 1.000
24.840 392.000 1.000
24.860 408.000 1.000
24.880 402.000 1.000
24.900 409.000 1.000
24.920 439.000 1.000
24.940 453.000 1.000
24.960 463.000 1.000
24.980 457.000 1.000
25.000 471.000 1.000
25.020 461.000 1.000
25.040 475.000 1.000
25.060 477.000 1.000
25.080 480.000 1.000
25.100 525.000 1.000
25.120 512.000 1.000
25.140 509.000 1.000
25.160 504.000 1.000
25.180 568.000 1.000
25.200 559.000 1.000
25.220 598.000 1.000
25.240 623.000 1.000
25.260 618.000 1.000
25.280 638.000 1.000
25.300 628.000 1.000
25.320 683.000 1.000
25.340 701.000 1.000
25.360 710.000 1.000
25.380 708.000 1.000
25.400 748.000 1.000
25.420 745.000 1.000
25.440 736.000 1.000
25.460 758.000 1.000
25.480 820.000 1.000
25.500 862.000 1.000
25.520 821.000 1.000
25.540 813.000 1.000
25.560 881.000 1.000
25.580 942.000 1.000
25.600 939.000 1.000
25.620 905.000 1.000
25.640 936.000 1.000
25.660 945.000 1.000
25.680 989.000 1.000
25.700 1021.000 1.000
25.720 1039.000 1.000
25.740 1034.000 1.000
25.760 1041.000 1.000
25.780 989.000 1.000
25.800 1037.000 1.000
25.820 1117.000 1.000
25.840 1124.000 1.000
25.860 1186.000 1.000
25.880 1167.000 1.000
25.900 1208.000 1.000
25.920 1195.000 1.000
25.940 1217.000 1.000
25.960 1240.000 1.000
25.980 1268.000 1.000
26.000 1288.000 1.000
26.020 1303.000 1.000
26.040 1320.000 1.000
26.060 1393.000 1.000
26.080 1414.000 1.000
26.100 1521.000 1.000
26.120 1619.000 1.000
26.140 1664.000 1.000
26.160 1885.000 1.000
26.180 2020.000 1.000
26.200 2234.000 1.000
26.220 2495.000 1.000
26.240 2753.000 1.000
26.260 3103.000 1.000
26.280 3477.000 1.000
26.300 3757.000 1.000
26.320 4145.000 1.000
26.340 4334.000 1.000
26.360 4405.000 1.000
26.380 4480.000 1.000
26.400 4390.000 1.000
26.420 3987.000 1.000
26.440 3506.000 1.000
26.460 3001.000 1.000
26.480 2447.000 1.000
26.500 2134.000 1.000
26.520 1684.000 1.000
26.540 1381.000 1.000
26.560 1146.000 1.000
26.580 1022.000 1.000
26.600 829.000 1.000
26.620 720.000 1.000
26.640 707.000 1.000
26.660 674.000 1.000
26.680 597.000 1.000
26.700 581.000 1.000
26.720 568.000 1.000
26.740 516.000 1.000
26.760 488.000 1.000
26.780 466.000 1.000
26.800 472.000 1.000
26.820 465.000 1.000
26.840 391.000 1.000
26.860 412.000 1.000
26.880 421.000 1.000
26.900 400.000 1.000
26.920 370.000 1.000
26.940 352.000 1.000
26.960 353.000 1.000
26.980 316.000 1.000
27.000 340.000 1.000
27.020 319.000 1.000
27.040 331.000 1.000
27.060 299.000 1.000
27.080 319.000 1.000
27.100 297.000 1.000
27.120 283.000 1.000
27.140 295.000 1.000
27.160 286.000 1.000
27.180 276.000 1.000
27.200 268.000 1.000
27.220 270.000 1.000
27.240 256.000 1.000
27.260 265.000 1.000
27.280 269.000 1.000
27.300 261.000 1.000
27.320 263.000 1.000
27.340 266.000 1.000
27.360 246.000 1.000
27.380 262.000 1.000
27.400 245.000 1.000
27.420 226.000 1.000
27.440 244.000 1.000
27.460 234.000 1.000
27.480 225.000 1.000
27.500 234.000 1.000
27.520 223.000 1.000
27.540 242.000 1.000
27.560 203.000 1.000
27.580 220.000 1.000
27.600 221.000 1.000
27.620 228.000 1.000
27.640 222.000 1.000
27.660 193.000 1.000
27.680 189.000 1.000
27.700 208.000 1.000
27.720 193.000 1.000
27.740 174.000 1.000
27.760 193.000 1.000
27.780 195.000 1.000
27.800 198.000 1.000
27.820 169.000 1.000
27.840 191.000 1.000
27.860 191.000 1.000
27.880 177.000 1.000
27.900 198.000 1.000
27.920 184.000 1.000
27.940 200.000 1.000
27.960 180.000 1.000
27.980 192.000 1.000
28.000 183.000 1.000
28.020 177.000 1.000
28.040 174.000 1.000
28.060 183.000 1.000
28.080 179.000 1.000
28.100 180.000 1.000
28.120 167.000 1.000
28.140 164.000 1.000
28.160 171.000 1.000
28.180 170.000 1.000
28.200 173.000 1.000
28.220 176.000 1.000
28.240 172.000 1.000
28.260 160.000 1.000
28.280 184.000 1.000
28.300 191.000 1.000
28.320 174.000 1.000
28.340 174.000 1.000
28.360 165.000 1.000
28.380 167.000 1.000
28.400 147.000 1.000
28.420 168.000 1.000
28.440 169.000 1.000
28.460 158.000 1.000
28.480 159.000 1.000
28.500 166.000 1.000
28.520 162.000 1.000
28.540 145.000 1.000
28.560 152.000 1.000
28.580 168.000 1.000
28.600 146.000 1.000
28.620 155.000 1.000
28.640 152.000 1.000
28.660 148.000 1.000
28.680 160.000 1.000
28.700 166.000 1.000
28.720 167.000 1.000
28.740 151.000 1.000
28.760 131.000 1.000
28.780 167.000 1.000
28.800 151.000 1.000
28.820 137.000 1.000
28.840 130.000 1.000
28.860 151.000 1.000
28.880 168.000 1.000
28.900 152.000 1.000
28.920 144.000 1.000
28.940 153.000 1.000
28.960 150.000 1.000
28.980 157.000 1.000
29.000 158.000 1.000
29.020 148.000 1.000
29.040 147.000 1.000
29.060 147.000 1.000
29.080 166.000 1.000
29.100 161.000 1.000
29.120 151.000 1.000
29.140 152.000 1.000
29.160 159.000 1.000
29.180 159.000 1.000
29.200 160.000 1.000
29.220 151.000 1.000
29.240 147.000 1.000
29.260 147.000 1.000
29.280 161.000 1.000
29.300 164.000 1.000
29.320 182.000 1.000
29.340 153.000 1.000
29.360 168.000 1.000
29.380 164.000 1.000
29.400 159.000 1.000
29.420 153.000 1.000
29.440 172.000 1.000
29.460 173.000 1.000
29.480 186.000 1.000
29.500 179.000 1.000
29.520 190.000 1.000
29.540 201.000 1.000
29.560 221.000 1.000
29.580 216.000 1.000
29.600 251.000 1.000
29.620 247.000 1.000
29.640 287.000 1.000
29.660 279.000 1.000
29.680 282.000 1.000
29.700 257.000 1.000
29.720 229.000 1.000
29.740 205.000 1.000
29.760 209.000 1.000
29.780 170.000 1.000
29.800 158.000 1.000
29.820 154.000 1.000
29.840 142.000 1.000
29.860 127.000 1.000
29.880 141.000 1.000
29.900 163.000 1.000
29.920 146.000 1.000
29.940 143.000 1.000
29.960 141.000 1.000
