*RAS_DATA_START
*RAS_HEADER_START
*CORR_POS_DB_NAME "DTEX_11112016"
*CORR_POS_GONIO_RADIUS ""
*CORR_POS_NODE_INDEX01 ""
*CORR_POS_NODE_INDEX02 ""
*CORR_POS_NODE_INDEX03 ""
*CORR_POS_NODE_INDEX04 ""
*CORR_POS_NODE_INDEX05 ""
*CORR_POS_NODE_INDEX06 ""
*CORR_POS_NODE_INDEX07 ""
*CORR_POS_NODE_INDEX08 ""
*CORR_POS_NODE_INDEX09 ""
*CORR_POS_NODE_INDEX10 ""
*CORR_POS_NODE_INDEX11 ""
*CORR_POS_NODE_LABEL01 "Si(111)"
*CORR_POS_NODE_LABEL02 "Si(220)"
*CORR_POS_NODE_LABEL03 "Si(311)"
*CORR_POS_NODE_LABEL04 "Si(400)"
*CORR_POS_NODE_LABEL05 "Si(331)"
*CORR_POS_NODE_LABEL06 "Si(422)"
*CORR_POS_NODE_LABEL07 "Si(511)"
*CORR_POS_NODE_LABEL08 "Si(440)"
*CORR_POS_NODE_LABEL09 "Si(531)"
*CORR_POS_NODE_LABEL10 "Si(620)"
*CORR_POS_NODE_LABEL11 "Si(533)"
*CORR_POS_NODE_POS_CALC01 "28.4137"
*CORR_POS_NODE_POS_CALC02 "47.2707"
*CORR_POS_NODE_POS_CALC03 "56.0883"
*CORR_POS_NODE_POS_CALC04 "69.0934"
*CORR_POS_NODE_POS_CALC05 "76.3385"
*CORR_POS_NODE_POS_CALC06 "87.9915"
*CORR_POS_NODE_POS_CALC07 "94.9137"
*CORR_POS_NODE_POS_CALC08 "106.67"
*CORR_POS_NODE_POS_CALC09 "114.054"
*CORR_POS_NODE_POS_CALC10 "127.508"
*CORR_POS_NODE_POS_CALC11 "136.858"
*CORR_POS_NODE_POS_MEAS01 "28.3712"
*CORR_POS_NODE_POS_MEAS02 "47.2304"
*CORR_POS_NODE_POS_MEAS03 "56.0465"
*CORR_POS_NODE_POS_MEAS04 "69.0523"
*CORR_POS_NODE_POS_MEAS05 "76.2993"
*CORR_POS_NODE_POS_MEAS06 "87.9512"
*CORR_POS_NODE_POS_MEAS07 "94.8772"
*CORR_POS_NODE_POS_MEAS08 "106.636"
*CORR_POS_NODE_POS_MEAS09 "114.028"
*CORR_POS_NODE_POS_MEAS10 "127.48"
*CORR_POS_NODE_POS_MEAS11 "136.839"
*CORR_POS_OPT_ATTR "集中法"
*CORR_POS_PARAM_MU ""
*CORR_POS_PARAM_PL ""
*CORR_POS_SEMODEL_TYPE "0"
*CORR_POS_STANDARD_TYPE ""
*CORR_POS_VALUE_ANALYZER "None"
*CORR_POS_VALUE_CMONO "None"
*CORR_POS_VALUE_IMONO "None"
*CORR_POS_VALUE_IS "0.625deg"
*CORR_POS_VALUE_ISL "10.0mm"
*CORR_POS_VALUE_ISOLLER "2.5deg"
*CORR_POS_VALUE_RS1 "13.0mm"
*CORR_POS_VALUE_RS2 "13.0mm"
*CORR_POS_VALUE_RSOLLER "2.5deg"
*CORR_POS_XG_FOCUS_L ""
*CORR_POS_XG_WAVE_TYPE ""
*CORR_POS_XG_WAVE_VALUE ""
*DISP_FMT_X "%.2f"
*DISP_FMT_Y "%.0f"
*DISP_FULLSCALE "5856.0000000000"
*DISP_LINE_COLOR "255.0000000000"
*DISP_LINE_STYLE "0.0000000000"
*DISP_LINE_WIDTH "0.2500000000"
*DISP_NOTE "Collected Data-5"
*DISP_OFFSET_Y "0.0000000000"
*DISP_PEAKSEARCH_UNIT_Y "COUNTS"
*DISP_RANGE_BOTTOM "0.0000000000"
*DISP_RANGE_LEFT "20.0000000000"
*DISP_RANGE_LOGCUTOFF "0.0100000000"
*DISP_RANGE_RIGHT "90.0000000000"
*DISP_RANGE_TOP "5856.0000000000"
*DISP_SCALE_MODE_Y "0.0000000000"
*DISP_TAB_NAME "Theta/2-Theta"
*DISP_TITLE_Y "Intensity"
*DISP_UNIT_Y "COUNTS"
*DISP_WINDOW_NAME "MSG_MACROENGINE"
*FILE_COMMENT " "
*FILE_MD5 ""
*FILE_MEMO " "
*FILE_OPERATOR "MiniFlex"
*FILE_PART_ID "MEAS_PBEA_00223"
*FILE_SAMPLE "cu2o_013_20-90_2theta_speed20_step0.02"
*FILE_TYPE "RAS_RAW"
*FILE_USERGROUP "System User"
*FILE_VERSION "1.0000000000"
*HW_ATTACHMENT_ID "ATT1031"
*HW_ATTACHMENT_NAME "6サンプルチェンジャ|ASC-6"
*HW_COUNTER_ID-0 "CUT0025"
*HW_COUNTER_ID-1 "CUT0020"
*HW_COUNTER_ID-2 "CUT0020"
*HW_COUNTER_ID-3 "CMC0021"
*HW_COUNTER_NAME-0 "D/teX Ultra|D/teX Ultra"
*HW_COUNTER_NAME-1 "None|None"
*HW_COUNTER_NAME-2 "None|None"
*HW_COUNTER_NAME-3 "検出器モノクロメータ|Detector monochromator"
*HW_COUNTER_SELECT_NAME "D/teX Ultra|D/teX Ultra"
*HW_GONIOMETER_ID "GON0070"
*HW_GONIOMETER_NAME "MiniFlex 300/600|MiniFlex 300/600"
*HW_GONIOMETER_RADIUS-0 "79.0"
*HW_GONIOMETER_RADIUS-1 "91.5"
*HW_GONIOMETER_RADIUS-2 "150.0"
*HW_GONIOMETER_RADIUS-3 "0"
*HW_GONIOMETER_RADIUS-4 "103.4"
*HW_GONIOMETER_RADIUS-5 "150.0"
*HW_GONIOMETER_RADIUS-6 "46.6"
*HW_GONIOMETER_RADIUS-7 "160.0"
*HW_I_OPT_ID-0 "ISL0021"
*HW_I_OPT_ID-1 "ISO0021"
*HW_I_OPT_NAME-0 "発散スリット|Divergence slit"
*HW_I_OPT_NAME-1 "入射平行スリット|Incident parallel slit"
*HW_R_ATTENUATER_AUTOMODE "0"
*HW_R_OPT_ID-0 "RSS0021"
*HW_R_OPT_ID-1 "RSO0021"
*HW_R_OPT_ID-2 "RRS0021"
*HW_R_OPT_NAME-0 "散乱スリット|Scattering slit"
*HW_R_OPT_NAME-1 "受光平行スリット|Receiving soller slit"
*HW_R_OPT_NAME-2 "受光スリット|Receiving slit"
*HW_SAMPLE_HOLDER_ID "SMP0000"
*HW_SAMPLE_HOLDER_NAME "無し|None"
*HW_XG_CURRENT_MAX "15"
*HW_XG_CURRENT_MIN "2"
*HW_XG_CURRENT_RESOLUTION "1"
*HW_XG_CURRENT_UNIT "mA"
*HW_XG_FOCUS "1mm x 10mm"
*HW_XG_FOCUS_TYPE "Normal"
*HW_XG_ID "1060"
*HW_XG_NAME "300W/600W 封入管-B|300W/600W Sealed tube-B"
*HW_XG_TARGET_ATOMIC_NUMBER "29.0000000000"
*HW_XG_TARGET_NAME "Cu"
*HW_XG_TYPE "Hermetic"
*HW_XG_VOLTAGE_MAX "40"
*HW_XG_VOLTAGE_MIN "20"
*HW_XG_VOLTAGE_RESOLUTION "1"
*HW_XG_VOLTAGE_UNIT "kV"
*HW_XG_WATT_MAX "1"
*HW_XG_WATT_UNIT "kW"
*HW_XG_WAVE_LENGTH_ALPHA1 "1.540593"
*HW_XG_WAVE_LENGTH_ALPHA2 "1.544414"
*HW_XG_WAVE_LENGTH_BETA "1.392250"
*MEAS_COND_AXIS_NAME-0 "Theta/2-Theta"
*MEAS_COND_AXIS_NAME-1 "Spin"
*MEAS_COND_AXIS_NAME-2 "Change"
*MEAS_COND_AXIS_NAME-3 "Soller(inc.)"
*MEAS_COND_AXIS_NAME-4 "IHS"
*MEAS_COND_AXIS_NAME-5 "DS"
*MEAS_COND_AXIS_NAME-6 "SS"
*MEAS_COND_AXIS_NAME-7 "Soller(rec.)"
*MEAS_COND_AXIS_NAME-8 "RS"
*MEAS_COND_AXIS_NAME-9 "Filter"
*MEAS_COND_AXIS_NAME-10 "Monochromator"
*MEAS_COND_AXIS_NAME-11 "PHA"
*MEAS_COND_AXIS_NAME_INTERNAL-0 "TwoThetaTheta"
*MEAS_COND_AXIS_NAME_INTERNAL-1 "Spin"
*MEAS_COND_AXIS_NAME_INTERNAL-2 "Change"
*MEAS_COND_AXIS_NAME_INTERNAL-3 "IncidentSollerSlit"
*MEAS_COND_AXIS_NAME_INTERNAL-4 "IncidentAxdSlit"
*MEAS_COND_AXIS_NAME_INTERNAL-5 "IncidentSlitBox"
*MEAS_COND_AXIS_NAME_INTERNAL-6 "ReceivingSlitBox1"
*MEAS_COND_AXIS_NAME_INTERNAL-7 "ReceivingSollerSlit"
*MEAS_COND_AXIS_NAME_INTERNAL-8 "ReceivingSlitBox2"
*MEAS_COND_AXIS_NAME_INTERNAL-9 "Filter"
*MEAS_COND_AXIS_NAME_INTERNAL-10 "CounterMonochromator"
*MEAS_COND_AXIS_NAME_INTERNAL-11 "PHA"
*MEAS_COND_AXIS_NAME_MAGICNO-0 "268632064.0000000000"
*MEAS_COND_AXIS_NAME_MAGICNO-1 "16842752.0000000000"
*MEAS_COND_AXIS_NAME_MAGICNO-2 "16842752.0000000000"
*MEAS_COND_AXIS_NAME_MAGICNO-3 "20971521.0000000000"
*MEAS_COND_AXIS_NAME_MAGICNO-4 "22020097.0000000000"
*MEAS_COND_AXIS_NAME_MAGICNO-5 "22020097.0000000000"
*MEAS_COND_AXIS_NAME_MAGICNO-6 "23068673.0000000000"
*MEAS_COND_AXIS_NAME_MAGICNO-7 "20971521.0000000000"
*MEAS_COND_AXIS_NAME_MAGICNO-8 "23068673.0000000000"
*MEAS_COND_AXIS_NAME_MAGICNO-9 "20971521.0000000000"
*MEAS_COND_AXIS_NAME_MAGICNO-10 "20971521.0000000000"
*MEAS_COND_AXIS_NAME_MAGICNO-11 "0.0000000000"
*MEAS_COND_AXIS_OFFSET-0 "0.0000000000"
*MEAS_COND_AXIS_OFFSET-1 "-"
*MEAS_COND_AXIS_OFFSET-2 "-"
*MEAS_COND_AXIS_OFFSET-3 "-"
*MEAS_COND_AXIS_OFFSET-4 "-"
*MEAS_COND_AXIS_OFFSET-5 "-"
*MEAS_COND_AXIS_OFFSET-6 "-"
*MEAS_COND_AXIS_OFFSET-7 "-"
*MEAS_COND_AXIS_OFFSET-8 "-"
*MEAS_COND_AXIS_OFFSET-9 "-"
*MEAS_COND_AXIS_OFFSET-10 "-"
*MEAS_COND_AXIS_OFFSET-11 "-"
*MEAS_COND_AXIS_POSITION-0 "10.0000000000"
*MEAS_COND_AXIS_POSITION-1 "0.0000000000"
*MEAS_COND_AXIS_POSITION-2 "4.0000000000"
*MEAS_COND_AXIS_POSITION-3 "2.5deg"
*MEAS_COND_AXIS_POSITION-4 "2.0mm"
*MEAS_COND_AXIS_POSITION-5 "0.625deg"
*MEAS_COND_AXIS_POSITION-6 "13.0mm(Open)"
*MEAS_COND_AXIS_POSITION-7 "2.5deg"
*MEAS_COND_AXIS_POSITION-8 "13.0mm"
*MEAS_COND_AXIS_POSITION-9 "K-beta(x1)"
*MEAS_COND_AXIS_POSITION-10 "None"
*MEAS_COND_AXIS_POSITION-11 "41.0000000000"
*MEAS_COND_AXIS_UNIT-0 "deg"
*MEAS_COND_AXIS_UNIT-1 ""
*MEAS_COND_AXIS_UNIT-2 ""
*MEAS_COND_AXIS_UNIT-3 ""
*MEAS_COND_AXIS_UNIT-4 ""
*MEAS_COND_AXIS_UNIT-5 ""
*MEAS_COND_AXIS_UNIT-6 ""
*MEAS_COND_AXIS_UNIT-7 ""
*MEAS_COND_AXIS_UNIT-8 ""
*MEAS_COND_AXIS_UNIT-9 ""
*MEAS_COND_AXIS_UNIT-10 ""
*MEAS_COND_AXIS_UNIT-11 "div"
*MEAS_COND_CORRECTION_SLIT_COUNTERMONO "None"
*MEAS_COND_CORRECTION_SLIT_DS "0.625deg"
*MEAS_COND_CORRECTION_SLIT_FILTER "None"
*MEAS_COND_CORRECTION_SLIT_IHS "2.0mm"
*MEAS_COND_CORRECTION_SLIT_RS "13.0mm"
*MEAS_COND_CORRECTION_SLIT_SOLLER_INC "2.5deg"
*MEAS_COND_CORRECTION_SLIT_SOLLER_REC "2.5deg"
*MEAS_COND_CORRECTION_SLIT_SS "13.0mm"
*MEAS_COND_COUNTER_CNTLOSS_CORR "0.0000000000"
*MEAS_COND_COUNTER_PHABASE "41.0000000000"
*MEAS_COND_COUNTER_PHAWINDOW "14.0000000000"
*MEAS_COND_COUNTER_PHA_UNIT "div"
*MEAS_COND_COUNTER_TAUDIFF "0.2500000000"
*MEAS_COND_COUNTER_TAUINT "0.7500000000"
*MEAS_COND_IRRADIATION_MODE "OFF"
*MEAS_COND_IRRADIATION_WIDTH ""
*MEAS_COND_OPT_ATTR " "
*MEAS_COND_OPT_NAME ""
*MEAS_COND_UNSYMMETRIC_MODE "OFF"
*MEAS_COND_XG_CURRENT "15.0000000000"
*MEAS_COND_XG_VOLTAGE "40.0000000000"
*MEAS_COND_XG_WAVE_TYPE "Ka"
*MEAS_DATA_COUNT "3501.0000000000"
*MEAS_SCAN_AXIS_X "Theta/2-Theta"
*MEAS_SCAN_AXIS_X_INTERNAL "TwoThetaTheta"
*MEAS_SCAN_END_TIME "09/06/17 12:05:34"
*MEAS_SCAN_MODE "CONTINUOUS"
*MEAS_SCAN_MONITOR "0"
*MEAS_SCAN_RESOLUTION_X "0.005"
*MEAS_SCAN_SPEED "20.000"
*MEAS_SCAN_SPEED_UNIT "deg/min"
*MEAS_SCAN_SPEED_USER "20.000"
*MEAS_SCAN_START "20.0000000000"
*MEAS_SCAN_START_TIME "09/06/17 12:01:34"
*MEAS_SCAN_STEP "0.0200000000"
*MEAS_SCAN_STOP "90.0000000000"
*MEAS_SCAN_UNIT_X "deg"
*MEAS_SCAN_UNIT_Y "counts"
*SLIT_SYSTEM "0"
*RAS_HEADER_END
*RAS_INT_START
20.000 107.000 1.000
20.020 107.000 1.000
20.040 107.000 1.000
20.060 128.000 1.000
20.080 147.000 1.000
20.100 133.000 1.000
20.120 115.000 1.000
20.140 144.000 1.000
20.160 147.000 1.000
20.180 134.000 1.000
20.200 150.000 1.000
20.220 159.000 1.000
20.240 137.000 1.000
20.260 158.000 1.000
20.280 133.000 1.000
20.300 134.000 1.000
20.320 142.000 1.000
20.340 146.000 1.000
20.360 139.000 1.000
20.380 137.000 1.000
20.400 145.000 1.000
20.420 128.000 1.000
20.440 144.000 1.000
20.460 131.000 1.000
20.480 136.000 1.000
20.500 137.000 1.000
20.520 142.000 1.000
20.540 143.000 1.000
20.560 138.000 1.000
20.580 130.000 1.000
20.600 142.000 1.000
20.620 173.000 1.000
20.640 150.000 1.000
20.660 140.000 1.000
20.680 153.000 1.000
20.700 143.000 1.000
20.720 146.000 1.000
20.740 146.000 1.000
20.760 143.000 1.000
20.780 136.000 1.000
20.800 140.000 1.000
20.820 138.000 1.000
20.840 148.000 1.000
20.860 160.000 1.000
20.880 163.000 1.000
20.900 165.000 1.000
20.920 144.000 1.000
20.940 134.000 1.000
20.960 139.000 1.000
20.980 145.000 1.000
21.000 159.000 1.000
21.020 154.000 1.000
21.040 155.000 1.000
21.060 146.000 1.000
21.080 142.000 1.000
21.100 155.000 1.000
21.120 151.000 1.000
21.140 143.000 1.000
21.160 153.000 1.000
21.180 158.000 1.000
21.200 168.000 1.000
21.220 160.000 1.000
21.240 163.000 1.000
21.260 172.000 1.000
21.280 173.000 1.000
21.300 155.000 1.000
21.320 171.000 1.000
21.340 158.000 1.000
21.360 158.000 1.000
21.380 153.000 1.000
21.400 166.000 1.000
21.420 156.000 1.000
21.440 155.000 1.000
21.460 160.000 1.000
21.480 152.000 1.000
21.500 158.000 1.000
21.520 165.000 1.000
21.540 155.000 1.000
21.560 129.000 1.000
21.580 142.000 1.000
21.600 138.000 1.000
21.620 151.000 1.000
21.640 159.000 1.000
21.660 155.000 1.000
21.680 160.000 1.000
21.700 157.000 1.000
21.720 153.000 1.000
21.740 169.000 1.000
21.760 175.000 1.000
21.780 161.000 1.000
21.800 167.000 1.000
21.820 166.000 1.000
21.840 166.000 1.000
21.860 156.000 1.000
21.880 164.000 1.000
21.900 151.000 1.000
21.920 151.000 1.000
21.940 158.000 1.000
21.960 175.000 1.000
21.980 151.000 1.000
22.000 145.000 1.000
22.020 143.000 1.000
22.040 148.000 1.000
22.060 168.000 1.000
22.080 162.000 1.000
22.100 164.000 1.000
22.120 177.000 1.000
22.140 171.000 1.000
22.160 163.000 1.000
22.180 151.000 1.000
22.200 158.000 1.000
22.220 183.000 1.000
22.240 185.000 1.000
22.260 178.000 1.000
22.280 171.000 1.000
22.300 147.000 1.000
22.320 158.000 1.000
22.340 153.000 1.000
22.360 169.000 1.000
22.380 174.000 1.000
22.400 178.000 1.000
22.420 164.000 1.000
22.440 167.000 1.000
22.460 186.000 1.000
22.480 178.000 1.000
22.500 182.000 1.000
22.520 186.000 1.000
22.540 176.000 1.000
22.560 176.000 1.000
22.580 183.000 1.000
22.600 169.000 1.000
22.620 164.000 1.000
22.640 167.000 1.000
22.660 164.000 1.000
22.680 182.000 1.000
22.700 188.000 1.000
22.720 181.000 1.000
22.740 174.000 1.000
22.760 182.000 1.000
22.780 187.000 1.000
22.800 187.000 1.000
22.820 170.000 1.000
22.840 190.000 1.000
22.860 163.000 1.000
22.880 190.000 1.000
22.900 186.000 1.000
22.920 186.000 1.000
22.940 186.000 1.000
22.960 201.000 1.000
22.980 197.000 1.000
23.000 190.000 1.000
23.020 178.000 1.000
23.040 177.000 1.000
23.060 175.000 1.000
23.080 189.000 1.000
23.100 199.000 1.000
23.120 183.000 1.000
23.140 202.000 1.000
23.160 185.000 1.000
23.180 212.000 1.000
23.200 212.000 1.000
23.220 202.000 1.000
23.240 203.000 1.000
23.260 210.000 1.000
23.280 209.000 1.000
23.300 230.000 1.000
23.320 219.000 1.000
23.340 193.000 1.000
23.360 204.000 1.000
23.380 238.000 1.000
23.400 235.000 1.000
23.420 209.000 1.000
23.440 215.000 1.000
23.460 198.000 1.000
23.480 210.000 1.000
23.500 199.000 1.000
23.520 205.000 1.000
23.540 211.000 1.000
23.560 211.000 1.000
23.580 220.000 1.000
23.600 231.000 1.000
23.620 250.000 1.000
23.640 242.000 1.000
23.660 244.000 1.000
23.680 238.000 1.000
23.700 260.000 1.000
23.720 254.000 1.000
23.740 250.000 1.000
23.760 243.000 1.000
23.780 247.000 1.000
23.800 242.000 1.000
23.820 254.000 1.000
23.840 248.000 1.000
23.860 251.000 1.000
23.880 278.000 1.000
23.900 257.000 1.000
23.920 251.000 1.000
23.940 277.000 1.000
23.960 284.000 1.000
23.980 285.000 1.000
24.000 281.000 1.000
24.020 280.000 1.000
24.040 280.000 1.000
24.060 274.000 1.000
24.080 298.000 1.000
24.100 277.000 1.000
24.120 299.000 1.000
24.140 288.000 1.000
24.160 292.000 1.000
24.180 289.000 1.000
24.200 272.000 1.000
24.220 306.000 1.000
24.240 332.000 1.000
24.260 324.000 1.000
24.280 321.000 1.000
24.300 314.000 1.000
24.320 290.000 1.000
24.340 338.000 1.000
24.360 348.000 1.000
24.380 360.000 1.000
24.400 363.000 1.000
24.420 355.000 1.000
24.440 359.000 1.000
24.460 357.000 1.000
24.480 378.000 1.000
24.500 381.000 1.000
24.520 393.000 1.000
24.540 382.000 1.000
24.560 406.000 1.000
24.580 411.000 1.000
24.600 423.000 1.000
24.620 422.000 1.000
24.640 392.000 1.000
24.660 410.000 1.000
24.680 468.000 1.000
24.700 465.000 1.000
24.720 450.000 1.000
24.740 444.000 1.000
24.760 489.000 1.000
24.780 486.000 1.000
24.800 481.000 1.000
24.820 489.000 1.000
24.840 510.000 1.000
24.860 536.000 1.000
24.880 537.000 1.000
24.900 575.000 1.000
24.920 572.000 1.000
24.940 611.000 1.000
24.960 591.000 1.000
24.980 587.000 1.000
25.000 622.000 1.000
25.020 598.000 1.000
25.040 651.000 1.000
25.060 671.000 1.000
25.080 672.000 1.000
25.100 692.000 1.000
25.120 704.000 1.000
25.140 695.000 1.000
25.160 737.000 1.000
25.180 755.000 1.000
25.200 733.000 1.000
25.220 759.000 1.000
25.240 811.000 1.000
25.260 807.000 1.000
25.280 819.000 1.000
25.300 873.000 1.000
25.320 922.000 1.000
25.340 917.000 1.000
25.360 958.000 1.000
25.380 954.000 1.000
25.400 939.000 1.000
25.420 970.000 1.000
25.440 995.000 1.000
25.460 1059.000 1.000
25.480 1085.000 1.000
25.500 1063.000 1.000
25.520 1091.000 1.000
25.540 1103.000 1.000
25.560 1097.000 1.000
25.580 1130.000 1.000
25.600 1212.000 1.000
25.620 1192.000 1.000
25.640 1274.000 1.000
25.660 1278.000 1.000
25.680 1309.000 1.000
25.700 1355.000 1.000
25.720 1330.000 1.000
25.740 1332.000 1.000
25.760 1396.000 1.000
25.780 1377.000 1.000
25.800 1462.000 1.000
25.820 1482.000 1.000
25.840 1489.000 1.000
25.860 1507.000 1.000
25.880 1452.000 1.000
25.900 1550.000 1.000
25.920 1595.000 1.000
25.940 1666.000 1.000
25.960 1657.000 1.000
25.980 1724.000 1.000
26.000 1812.000 1.000
26.020 1885.000 1.000
26.040 1999.000 1.000
26.060 2137.000 1.000
26.080 2353.000 1.000
26.100 2553.000 1.000
26.120 2809.000 1.000
26.140 2980.000 1.000
26.160 3366.000 1.000
26.180 3693.000 1.000
26.200 3954.000 1.000
26.220 4296.000 1.000
26.240 4575.000 1.000
26.260 4795.000 1.000
26.280 4875.000 1.000
26.300 4858.000 1.000
26.320 4880.000 1.000
26.340 4588.000 1.000
26.360 4304.000 1.000
26.380 3796.000 1.000
26.400 3274.000 1.000
26.420 2759.000 1.000
26.440 2324.000 1.000
26.460 1914.000 1.000
26.480 1606.000 1.000
26.500 1329.000 1.000
26.520 1166.000 1.000
26.540 1039.000 1.000
26.560 927.000 1.000
26.580 836.000 1.000
26.600 769.000 1.000
26.620 733.000 1.000
26.640 653.000 1.000
26.660 621.000 1.000
26.680 629.000 1.000
26.700 616.000 1.000
26.720 571.000 1.000
26.740 551.000 1.000
26.760 512.000 1.000
26.780 509.000 1.000
26.800 458.000 1.000
26.820 459.000 1.000
26.840 469.000 1.000
26.860 455.000 1.000
26.880 426.000 1.000
26.900 430.000 1.000
26.920 429.000 1.000
26.940 408.000 1.000
26.960 390.000 1.000
26.980 405.000 1.000
27.000 386.000 1.000
27.020 391.000 1.000
27.040 349.000 1.000
27.060 363.000 1.000
27.080 335.000 1.000
27.100 345.000 1.000
27.120 338.000 1.000
27.140 329.000 1.000
27.160 314.000 1.000
27.180 297.000 1.000
27.200 325.000 1.000
27.220 296.000 1.000
27.240 309.000 1.000
27.260 285.000 1.000
27.280 284.000 1.000
27.300 280.000 1.000
27.320 251.000 1.000
27.340 249.000 1.000
27.360 239.000 1.000
27.380 238.000 1.000
27.400 290.000 1.000
27.420 280.000 1.000
27.440 268.000 1.000
27.460 268.000 1.000
27.480 264.000 1.000
27.500 252.000 1.000
27.520 243.000 1.000
27.540 239.000 1.000
27.560 237.000 1.000
27.580 234.000 1.000
27.600 242.000 1.000
27.620 227.000 1.000
27.640 234.000 1.000
27.660 239.000 1.000
27.680 210.000 1.000
27.700 218.000 1.000
27.720 229.000 1.000
27.740 226.000 1.000
27.760 220.000 1.000
27.780 223.000 1.000
27.800 210.000 1.000
27.820 218.000 1.000
27.840 194.000 1.000
27.860 186.000 1.000
27.880 206.000 1.000
27.900 206.000 1.000
27.920 198.000 1.000
27.940 202.000 1.000
27.960 184.000 1.000
27.980 200.000 1.000
28.000 195.000 1.000
28.020 197.000 1.000
28.040 188.000 1.000
28.060 191.000 1.000
28.080 202.000 1.000
28.100 185.000 1.000
28.120 193.000 1.000
28.140 205.000 1.000
28.160 181.000 1.000
28.180 182.000 1.000
28.200 180.000 1.000
28.220 190.000 1.000
28.240 187.000 1.000
28.260 193.000 1.000
28.280 197.000 1.000
28.300 194.000 1.000
28.320 191.000 1.000
28.340 202.000 1.000
28.360 191.000 1.000
28.380 179.000 1.000
28.400 185.000 1.000
28.420 175.000 1.000
28.440 176.000 1.000
28.460 188.000 1.000
28.480 196.000 1.000
28.500 162.000 1.000
28.520 167.000 1.000
28.540 163.000 1.000
28.560 166.000 1.000
28.580 162.000 1.000
28.600 159.000 1.000
28.620 176.000 1.000
28.640 173.000 1.000
28.660 168.000 1.000
28.680 162.000 1.000
28.700 160.000 1.000
28.720 158.000 1.000
28.740 173.000 1.000
28.760 161.000 1.000
28.780 151.000 1.000
28.800 160.000 1.000
28.820 150.000 1.000
28.840 167.000 1.000
28.860 161.000 1.000
28.880 171.000 1.000
28.900 156.000 1.000
28.920 171.000 1.000
28.940 159.000 1.000
28.960 167.000 1.000
28.980 169.000 1.000
29.000 165.000 1.000
29.020 162.000 1.000
29.040 173.000 1.000
29.060 164.000 1.000
29.080 167.000 1.000
29.100 153.000 1.000
29.120 163.000 1.000
29.140 171.000 1.000
29.160 172.000 1.000
29.180 187.000 1.000
29.200 205.000 1.000
29.220 199.000 1.000
29.240 205.000 1.000
29.260 189.000 1.000
29.280 219.000 1.000
29.300 219.000 1.000
29.320 219.000 1.000
29.340 196.000 1.000
29.360 218.000 1.000
29.380 217.000 1.000
29.400 224.000 1.000
29.420 229.000 1.000
29.440 245.000 1.000
29.460 246.000 1.000
29.480 255.000 1.000
29.500 236.000 1.000
29.520 228.000 1.000
29.540 236.000 1.000
29.560 197.000 1.000
29.580 201.000 1.000
29.600 207.000 1.000
29.620 197.000 1.000
29.640 162.000 1.000
29.660 159.000 1.000
29.680 170.000 1.000
29.700 154.000 1.000
29.720 158.000 1.000
29.740 150.000 1.000
29.760 145.000 1.000
29.780 157.000 1.000
29.800 147.000 1.000
29.820 131.000 1.000
29.840 134.000 1.000
29.860 142.000 1.000
29.880 145.000 1.000
29.900 123.000 1.000
29.920 153.000 1.000
29.940 153.000 1.000
