*RAS_DATA_START
*RAS_HEADER_START
*CORR_POS_DB_NAME "DTEX_11112016"
*CORR_POS_GONIO_RADIUS ""
*CORR_POS_NODE_INDEX01 ""
*CORR_POS_NODE_INDEX02 ""
*CORR_POS_NODE_INDEX03 ""
*CORR_POS_NODE_INDEX04 ""
*CORR_POS_NODE_INDEX05 ""
*CORR_POS_NODE_INDEX06 ""
*CORR_POS_NODE_INDEX07 ""
*CORR_POS_NODE_INDEX08 ""
*CORR_POS_NODE_INDEX09 ""
*CORR_POS_NODE_INDEX10 ""
*CORR_POS_NODE_INDEX11 ""
*CORR_POS_NODE_LABEL01 "Si(111)"
*CORR_POS_NODE_LABEL02 "Si(220)"
*CORR_POS_NODE_LABEL03 "Si(311)"
*CORR_POS_NODE_LABEL04 "Si(400)"
*CORR_POS_NODE_LABEL05 "Si(331)"
*CORR_POS_NODE_LABEL06 "Si(422)"
*CORR_POS_NODE_LABEL07 "Si(511)"
*CORR_POS_NODE_LABEL08 "Si(440)"
*CORR_POS_NODE_LABEL09 "Si(531)"
*CORR_POS_NODE_LABEL10 "Si(620)"
*CORR_POS_NODE_LABEL11 "Si(533)"
*CORR_POS_NODE_POS_CALC01 "28.4137"
*CORR_POS_NODE_POS_CALC02 "47.2707"
*CORR_POS_NODE_POS_CALC03 "56.0883"
*CORR_POS_NODE_POS_CALC04 "69.0934"
*CORR_POS_NODE_POS_CALC05 "76.3385"
*CORR_POS_NODE_POS_CALC06 "87.9915"
*CORR_POS_NODE_POS_CALC07 "94.9137"
*CORR_POS_NODE_POS_CALC08 "106.67"
*CORR_POS_NODE_POS_CALC09 "114.054"
*CORR_POS_NODE_POS_CALC10 "127.508"
*CORR_POS_NODE_POS_CALC11 "136.858"
*CORR_POS_NODE_POS_MEAS01 "28.3712"
*CORR_POS_NODE_POS_MEAS02 "47.2304"
*CORR_POS_NODE_POS_MEAS03 "56.0465"
*CORR_POS_NODE_POS_MEAS04 "69.0523"
*CORR_POS_NODE_POS_MEAS05 "76.2993"
*CORR_POS_NODE_POS_MEAS06 "87.9512"
*CORR_POS_NODE_POS_MEAS07 "94.8772"
*CORR_POS_NODE_POS_MEAS08 "106.636"
*CORR_POS_NODE_POS_MEAS09 "114.028"
*CORR_POS_NODE_POS_MEAS10 "127.48"
*CORR_POS_NODE_POS_MEAS11 "136.839"
*CORR_POS_OPT_ATTR "集中法"
*CORR_POS_PARAM_MU ""
*CORR_POS_PARAM_PL ""
*CORR_POS_SEMODEL_TYPE "0"
*CORR_POS_STANDARD_TYPE ""
*CORR_POS_VALUE_ANALYZER "None"
*CORR_POS_VALUE_CMONO "None"
*CORR_POS_VALUE_IMONO "None"
*CORR_POS_VALUE_IS "0.625deg"
*CORR_POS_VALUE_ISL "10.0mm"
*CORR_POS_VALUE_ISOLLER "2.5deg"
*CORR_POS_VALUE_RS1 "13.0mm"
*CORR_POS_VALUE_RS2 "13.0mm"
*CORR_POS_VALUE_RSOLLER "2.5deg"
*CORR_POS_XG_FOCUS_L ""
*CORR_POS_XG_WAVE_TYPE ""
*CORR_POS_XG_WAVE_VALUE ""
*DISP_FMT_X "%.2f"
*DISP_FMT_Y "%.0f"
*DISP_FULLSCALE "9128.4000000000"
*DISP_LINE_COLOR "255.0000000000"
*DISP_LINE_STYLE "0.0000000000"
*DISP_LINE_WIDTH "0.2500000000"
*DISP_NOTE "Collected Data-1"
*DISP_OFFSET_Y "0.0000000000"
*DISP_PEAKSEARCH_UNIT_Y "COUNTS"
*DISP_RANGE_BOTTOM "0.0000000000"
*DISP_RANGE_LEFT "10.0000000000"
*DISP_RANGE_LOGCUTOFF "0.0100000000"
*DISP_RANGE_RIGHT "90.0000000000"
*DISP_RANGE_TOP "9128.4000000000"
*DISP_SCALE_MODE_Y "0.0000000000"
*DISP_TAB_NAME "Theta/2-Theta"
*DISP_TITLE_Y "Intensity"
*DISP_UNIT_Y "COUNTS"
*DISP_WINDOW_NAME "MSG_MACROENGINE"
*FILE_COMMENT " "
*FILE_MD5 ""
*FILE_MEMO "35C"
*FILE_OPERATOR "MiniFlex"
*FILE_PART_ID "MEAS_PBEA_00223"
*FILE_SAMPLE "006"
*FILE_TYPE "RAS_RAW"
*FILE_USERGROUP "System User"
*FILE_VERSION "1.0000000000"
*HW_ATTACHMENT_ID "ATT1031"
*HW_ATTACHMENT_NAME "6サンプルチェンジャ|ASC-6"
*HW_COUNTER_ID-0 "CUT0025"
*HW_COUNTER_ID-1 "CUT0020"
*HW_COUNTER_ID-2 "CUT0020"
*HW_COUNTER_ID-3 "CMC0021"
*HW_COUNTER_NAME-0 "D/teX Ultra|D/teX Ultra"
*HW_COUNTER_NAME-1 "None|None"
*HW_COUNTER_NAME-2 "None|None"
*HW_COUNTER_NAME-3 "検出器モノクロメータ|Detector monochromator"
*HW_COUNTER_SELECT_NAME "D/teX Ultra|D/teX Ultra"
*HW_GONIOMETER_ID "GON0070"
*HW_GONIOMETER_NAME "MiniFlex 300/600|MiniFlex 300/600"
*HW_GONIOMETER_RADIUS-0 "79.0"
*HW_GONIOMETER_RADIUS-1 "91.5"
*HW_GONIOMETER_RADIUS-2 "150.0"
*HW_GONIOMETER_RADIUS-3 "0"
*HW_GONIOMETER_RADIUS-4 "103.4"
*HW_GONIOMETER_RADIUS-5 "150.0"
*HW_GONIOMETER_RADIUS-6 "46.6"
*HW_GONIOMETER_RADIUS-7 "160.0"
*HW_I_OPT_ID-0 "ISL0021"
*HW_I_OPT_ID-1 "ISO0021"
*HW_I_OPT_NAME-0 "発散スリット|Divergence slit"
*HW_I_OPT_NAME-1 "入射平行スリット|Incident parallel slit"
*HW_R_ATTENUATER_AUTOMODE "0"
*HW_R_OPT_ID-0 "RSS0021"
*HW_R_OPT_ID-1 "RSO0021"
*HW_R_OPT_ID-2 "RRS0021"
*HW_R_OPT_NAME-0 "散乱スリット|Scattering slit"
*HW_R_OPT_NAME-1 "受光平行スリット|Receiving soller slit"
*HW_R_OPT_NAME-2 "受光スリット|Receiving slit"
*HW_SAMPLE_HOLDER_ID "SMP0000"
*HW_SAMPLE_HOLDER_NAME "無し|None"
*HW_XG_CURRENT_MAX "15"
*HW_XG_CURRENT_MIN "2"
*HW_XG_CURRENT_RESOLUTION "1"
*HW_XG_CURRENT_UNIT "mA"
*HW_XG_FOCUS "1mm x 10mm"
*HW_XG_FOCUS_TYPE "Normal"
*HW_XG_ID "1060"
*HW_XG_NAME "300W/600W 封入管-B|300W/600W Sealed tube-B"
*HW_XG_TARGET_ATOMIC_NUMBER "29.0000000000"
*HW_XG_TARGET_NAME "Cu"
*HW_XG_TYPE "Hermetic"
*HW_XG_VOLTAGE_MAX "40"
*HW_XG_VOLTAGE_MIN "20"
*HW_XG_VOLTAGE_RESOLUTION "1"
*HW_XG_VOLTAGE_UNIT "kV"
*HW_XG_WATT_MAX "1"
*HW_XG_WATT_UNIT "kW"
*HW_XG_WAVE_LENGTH_ALPHA1 "1.540593"
*HW_XG_WAVE_LENGTH_ALPHA2 "1.544414"
*HW_XG_WAVE_LENGTH_BETA "1.392250"
*MEAS_COND_AXIS_NAME-0 "Theta/2-Theta"
*MEAS_COND_AXIS_NAME-1 "Spin"
*MEAS_COND_AXIS_NAME-2 "Change"
*MEAS_COND_AXIS_NAME-3 "Soller(inc.)"
*MEAS_COND_AXIS_NAME-4 "IHS"
*MEAS_COND_AXIS_NAME-5 "DS"
*MEAS_COND_AXIS_NAME-6 "SS"
*MEAS_COND_AXIS_NAME-7 "Soller(rec.)"
*MEAS_COND_AXIS_NAME-8 "RS"
*MEAS_COND_AXIS_NAME-9 "Filter"
*MEAS_COND_AXIS_NAME-10 "Monochromator"
*MEAS_COND_AXIS_NAME-11 "PHA"
*MEAS_COND_AXIS_NAME_INTERNAL-0 "TwoThetaTheta"
*MEAS_COND_AXIS_NAME_INTERNAL-1 "Spin"
*MEAS_COND_AXIS_NAME_INTERNAL-2 "Change"
*MEAS_COND_AXIS_NAME_INTERNAL-3 "IncidentSollerSlit"
*MEAS_COND_AXIS_NAME_INTERNAL-4 "IncidentAxdSlit"
*MEAS_COND_AXIS_NAME_INTERNAL-5 "IncidentSlitBox"
*MEAS_COND_AXIS_NAME_INTERNAL-6 "ReceivingSlitBox1"
*MEAS_COND_AXIS_NAME_INTERNAL-7 "ReceivingSollerSlit"
*MEAS_COND_AXIS_NAME_INTERNAL-8 "ReceivingSlitBox2"
*MEAS_COND_AXIS_NAME_INTERNAL-9 "Filter"
*MEAS_COND_AXIS_NAME_INTERNAL-10 "CounterMonochromator"
*MEAS_COND_AXIS_NAME_INTERNAL-11 "PHA"
*MEAS_COND_AXIS_NAME_MAGICNO-0 "268632064.0000000000"
*MEAS_COND_AXIS_NAME_MAGICNO-1 "16842752.0000000000"
*MEAS_COND_AXIS_NAME_MAGICNO-2 "16842752.0000000000"
*MEAS_COND_AXIS_NAME_MAGICNO-3 "20971521.0000000000"
*MEAS_COND_AXIS_NAME_MAGICNO-4 "22020097.0000000000"
*MEAS_COND_AXIS_NAME_MAGICNO-5 "22020097.0000000000"
*MEAS_COND_AXIS_NAME_MAGICNO-6 "23068673.0000000000"
*MEAS_COND_AXIS_NAME_MAGICNO-7 "20971521.0000000000"
*MEAS_COND_AXIS_NAME_MAGICNO-8 "23068673.0000000000"
*MEAS_COND_AXIS_NAME_MAGICNO-9 "20971521.0000000000"
*MEAS_COND_AXIS_NAME_MAGICNO-10 "20971521.0000000000"
*MEAS_COND_AXIS_NAME_MAGICNO-11 "0.0000000000"
*MEAS_COND_AXIS_OFFSET-0 "0.0000000000"
*MEAS_COND_AXIS_OFFSET-1 "-"
*MEAS_COND_AXIS_OFFSET-2 "-"
*MEAS_COND_AXIS_OFFSET-3 "-"
*MEAS_COND_AXIS_OFFSET-4 "-"
*MEAS_COND_AXIS_OFFSET-5 "-"
*MEAS_COND_AXIS_OFFSET-6 "-"
*MEAS_COND_AXIS_OFFSET-7 "-"
*MEAS_COND_AXIS_OFFSET-8 "-"
*MEAS_COND_AXIS_OFFSET-9 "-"
*MEAS_COND_AXIS_OFFSET-10 "-"
*MEAS_COND_AXIS_OFFSET-11 "-"
*MEAS_COND_AXIS_POSITION-0 "10.0000000000"
*MEAS_COND_AXIS_POSITION-1 "0.0000000000"
*MEAS_COND_AXIS_POSITION-2 "1.0000000000"
*MEAS_COND_AXIS_POSITION-3 "2.5deg"
*MEAS_COND_AXIS_POSITION-4 "10.0mm"
*MEAS_COND_AXIS_POSITION-5 "0.625deg"
*MEAS_COND_AXIS_POSITION-6 "13.0mm(Open)"
*MEAS_COND_AXIS_POSITION-7 "2.5deg"
*MEAS_COND_AXIS_POSITION-8 "13.0mm"
*MEAS_COND_AXIS_POSITION-9 "K-beta(x2)"
*MEAS_COND_AXIS_POSITION-10 "None"
*MEAS_COND_AXIS_POSITION-11 "41.0000000000"
*MEAS_COND_AXIS_UNIT-0 "deg"
*MEAS_COND_AXIS_UNIT-1 ""
*MEAS_COND_AXIS_UNIT-2 ""
*MEAS_COND_AXIS_UNIT-3 ""
*MEAS_COND_AXIS_UNIT-4 ""
*MEAS_COND_AXIS_UNIT-5 ""
*MEAS_COND_AXIS_UNIT-6 ""
*MEAS_COND_AXIS_UNIT-7 ""
*MEAS_COND_AXIS_UNIT-8 ""
*MEAS_COND_AXIS_UNIT-9 ""
*MEAS_COND_AXIS_UNIT-10 ""
*MEAS_COND_AXIS_UNIT-11 "div"
*MEAS_COND_CORRECTION_SLIT_COUNTERMONO "None"
*MEAS_COND_CORRECTION_SLIT_DS "0.625deg"
*MEAS_COND_CORRECTION_SLIT_FILTER "None"
*MEAS_COND_CORRECTION_SLIT_IHS "10.0mm"
*MEAS_COND_CORRECTION_SLIT_RS "13.0mm"
*MEAS_COND_CORRECTION_SLIT_SOLLER_INC "2.5deg"
*MEAS_COND_CORRECTION_SLIT_SOLLER_REC "2.5deg"
*MEAS_COND_CORRECTION_SLIT_SS "13.0mm"
*MEAS_COND_COUNTER_CNTLOSS_CORR "0.0000000000"
*MEAS_COND_COUNTER_PHABASE "41.0000000000"
*MEAS_COND_COUNTER_PHAWINDOW "14.0000000000"
*MEAS_COND_COUNTER_PHA_UNIT "div"
*MEAS_COND_COUNTER_TAUDIFF "0.2500000000"
*MEAS_COND_COUNTER_TAUINT "0.7500000000"
*MEAS_COND_IRRADIATION_MODE "OFF"
*MEAS_COND_IRRADIATION_WIDTH ""
*MEAS_COND_OPT_ATTR " "
*MEAS_COND_OPT_NAME ""
*MEAS_COND_UNSYMMETRIC_MODE "OFF"
*MEAS_COND_XG_CURRENT "15.0000000000"
*MEAS_COND_XG_VOLTAGE "40.0000000000"
*MEAS_COND_XG_WAVE_TYPE "Ka"
*MEAS_DATA_COUNT "4001.0000000000"
*MEAS_SCAN_AXIS_X "Theta/2-Theta"
*MEAS_SCAN_AXIS_X_INTERNAL "TwoThetaTheta"
*MEAS_SCAN_END_TIME "03/14/17 10:45:12"
*MEAS_SCAN_MODE "CONTINUOUS"
*MEAS_SCAN_MONITOR "0"
*MEAS_SCAN_RESOLUTION_X "0.005"
*MEAS_SCAN_SPEED "10.000"
*MEAS_SCAN_SPEED_UNIT "deg/min"
*MEAS_SCAN_SPEED_USER "10.000"
*MEAS_SCAN_START "10.0000000000"
*MEAS_SCAN_START_TIME "03/14/17 10:36:26"
*MEAS_SCAN_STEP "0.0200000000"
*MEAS_SCAN_STOP "90.0000000000"
*MEAS_SCAN_UNIT_X "deg"
*MEAS_SCAN_UNIT_Y "counts"
*SLIT_SYSTEM "0"
*RAS_HEADER_END
*RAS_INT_START
10.000 168.000 1.000
10.020 168.000 1.000
10.040 168.000 1.000
10.060 160.000 1.000
10.080 165.000 1.000
10.100 176.000 1.000
10.120 197.000 1.000
10.140 183.000 1.000
10.160 188.000 1.000
10.180 200.000 1.000
10.200 180.000 1.000
10.220 176.000 1.000
10.240 195.000 1.000
10.260 180.000 1.000
10.280 181.000 1.000
10.300 172.000 1.000
10.320 168.000 1.000
10.340 162.000 1.000
10.360 173.000 1.000
10.380 182.000 1.000
10.400 181.000 1.000
10.420 185.000 1.000
10.440 182.000 1.000
10.460 178.000 1.000
10.480 175.000 1.000
10.500 188.000 1.000
10.520 199.000 1.000
10.540 202.000 1.000
10.560 195.000 1.000
10.580 180.000 1.000
10.600 197.000 1.000
10.620 189.000 1.000
10.640 168.000 1.000
10.660 168.000 1.000
10.680 168.000 1.000
10.700 171.000 1.000
10.720 184.000 1.000
10.740 186.000 1.000
10.760 172.000 1.000
10.780 176.000 1.000
10.800 182.000 1.000
10.820 192.000 1.000
10.840 184.000 1.000
10.860 189.000 1.000
10.880 198.000 1.000
10.900 191.000 1.000
10.920 185.000 1.000
10.940 177.000 1.000
10.960 180.000 1.000
10.980 186.000 1.000
11.000 192.000 1.000
11.020 196.000 1.000
11.040 199.000 1.000
11.060 190.000 1.000
11.080 173.000 1.000
11.100 168.000 1.000
11.120 158.000 1.000
11.140 185.000 1.000
11.160 197.000 1.000
11.180 192.000 1.000
11.200 171.000 1.000
11.220 177.000 1.000
11.240 178.000 1.000
11.260 193.000 1.000
11.280 181.000 1.000
11.300 182.000 1.000
11.320 167.000 1.000
11.340 189.000 1.000
11.360 203.000 1.000
11.380 192.000 1.000
11.400 200.000 1.000
11.420 185.000 1.000
11.440 172.000 1.000
11.460 175.000 1.000
11.480 179.000 1.000
11.500 195.000 1.000
11.520 195.000 1.000
11.540 173.000 1.000
11.560 171.000 1.000
11.580 179.000 1.000
11.600 196.000 1.000
11.620 193.000 1.000
11.640 198.000 1.000
11.660 188.000 1.000
11.680 179.000 1.000
11.700 176.000 1.000
11.720 168.000 1.000
11.740 188.000 1.000
11.760 195.000 1.000
11.780 199.000 1.000
11.800 184.000 1.000
11.820 197.000 1.000
11.840 189.000 1.000
11.860 201.000 1.000
11.880 205.000 1.000
11.900 199.000 1.000
11.920 199.000 1.000
11.940 209.000 1.000
11.960 214.000 1.000
11.980 200.000 1.000
12.000 187.000 1.000
12.020 194.000 1.000
12.040 195.000 1.000
12.060 184.000 1.000
12.080 185.000 1.000
12.100 171.000 1.000
12.120 197.000 1.000
12.140 196.000 1.000
12.160 176.000 1.000
12.180 185.000 1.000
12.200 195.000 1.000
12.220 207.000 1.000
12.240 197.000 1.000
12.260 191.000 1.000
12.280 186.000 1.000
12.300 176.000 1.000
12.320 179.000 1.000
12.340 183.000 1.000
12.360 195.000 1.000
12.380 208.000 1.000
12.400 199.000 1.000
12.420 217.000 1.000
12.440 177.000 1.000
12.460 181.000 1.000
12.480 173.000 1.000
12.500 191.000 1.000
12.520 198.000 1.000
12.540 187.000 1.000
12.560 179.000 1.000
12.580 195.000 1.000
12.600 200.000 1.000
12.620 183.000 1.000
12.640 184.000 1.000
12.660 190.000 1.000
12.680 184.000 1.000
12.700 181.000 1.000
12.720 203.000 1.000
12.740 186.000 1.000
12.760 173.000 1.000
12.780 172.000 1.000
12.800 181.000 1.000
12.820 175.000 1.000
12.840 193.000 1.000
12.860 187.000 1.000
12.880 187.000 1.000
12.900 183.000 1.000
12.920 188.000 1.000
12.940 205.000 1.000
12.960 193.000 1.000
12.980 195.000 1.000
13.000 174.000 1.000
13.020 163.000 1.000
13.040 175.000 1.000
13.060 191.000 1.000
13.080 181.000 1.000
13.100 177.000 1.000
13.120 191.000 1.000
13.140 186.000 1.000
13.160 189.000 1.000
13.180 186.000 1.000
13.200 180.000 1.000
13.220 186.000 1.000
13.240 193.000 1.000
13.260 197.000 1.000
13.280 200.000 1.000
13.300 191.000 1.000
13.320 179.000 1.000
13.340 185.000 1.000
13.360 193.000 1.000
13.380 194.000 1.000
13.400 196.000 1.000
13.420 189.000 1.000
13.440 186.000 1.000
13.460 187.000 1.000
13.480 167.000 1.000
13.500 182.000 1.000
13.520 196.000 1.000
13.540 181.000 1.000
13.560 167.000 1.000
13.580 165.000 1.000
13.600 179.000 1.000
13.620 206.000 1.000
13.640 193.000 1.000
13.660 190.000 1.000
13.680 196.000 1.000
13.700 185.000 1.000
13.720 190.000 1.000
13.740 175.000 1.000
13.760 164.000 1.000
13.780 180.000 1.000
13.800 175.000 1.000
13.820 181.000 1.000
13.840 179.000 1.000
13.860 182.000 1.000
13.880 185.000 1.000
13.900 189.000 1.000
13.920 190.000 1.000
13.940 181.000 1.000
13.960 189.000 1.000
13.980 172.000 1.000
14.000 174.000 1.000
14.020 181.000 1.000
14.040 188.000 1.000
14.060 181.000 1.000
14.080 167.000 1.000
14.100 162.000 1.000
14.120 189.000 1.000
14.140 216.000 1.000
14.160 200.000 1.000
14.180 190.000 1.000
14.200 169.000 1.000
14.220 188.000 1.000
14.240 192.000 1.000
14.260 183.000 1.000
14.280 181.000 1.000
14.300 187.000 1.000
14.320 179.000 1.000
14.340 183.000 1.000
14.360 176.000 1.000
14.380 178.000 1.000
14.400 190.000 1.000
14.420 201.000 1.000
14.440 185.000 1.000
14.460 177.000 1.000
14.480 175.000 1.000
14.500 166.000 1.000
14.520 185.000 1.000
14.540 200.000 1.000
14.560 172.000 1.000
14.580 161.000 1.000
14.600 170.000 1.000
14.620 178.000 1.000
14.640 197.000 1.000
14.660 185.000 1.000
14.680 166.000 1.000
14.700 173.000 1.000
14.720 163.000 1.000
14.740 163.000 1.000
14.760 174.000 1.000
14.780 175.000 1.000
14.800 183.000 1.000
14.820 179.000 1.000
14.840 168.000 1.000
14.860 170.000 1.000
14.880 183.000 1.000
14.900 185.000 1.000
14.920 186.000 1.000
14.940 160.000 1.000
14.960 173.000 1.000
14.980 193.000 1.000
15.000 187.000 1.000
15.020 195.000 1.000
15.040 193.000 1.000
15.060 174.000 1.000
15.080 190.000 1.000
15.100 180.000 1.000
15.120 177.000 1.000
15.140 183.000 1.000
15.160 215.000 1.000
15.180 204.000 1.000
15.200 186.000 1.000
15.220 184.000 1.000
15.240 165.000 1.000
15.260 186.000 1.000
15.280 197.000 1.000
15.300 183.000 1.000
15.320 179.000 1.000
15.340 170.000 1.000
15.360 183.000 1.000
15.380 202.000 1.000
15.400 188.000 1.000
15.420 181.000 1.000
15.440 170.000 1.000
15.460 180.000 1.000
15.480 183.000 1.000
15.500 189.000 1.000
15.520 168.000 1.000
15.540 186.000 1.000
15.560 184.000 1.000
15.580 170.000 1.000
15.600 181.000 1.000
15.620 186.000 1.000
15.640 183.000 1.000
15.660 176.000 1.000
15.680 169.000 1.000
15.700 164.000 1.000
15.720 174.000 1.000
15.740 163.000 1.000
15.760 172.000 1.000
15.780 187.000 1.000
15.800 174.000 1.000
15.820 180.000 1.000
15.840 185.000 1.000
15.860 199.000 1.000
15.880 177.000 1.000
15.900 167.000 1.000
15.920 171.000 1.000
15.940 178.000 1.000
15.960 183.000 1.000
15.980 161.000 1.000
16.000 174.000 1.000
16.020 187.000 1.000
16.040 181.000 1.000
16.060 184.000 1.000
16.080 180.000 1.000
16.100 170.000 1.000
16.120 187.000 1.000
16.140 202.000 1.000
16.160 181.000 1.000
16.180 174.000 1.000
16.200 166.000 1.000
16.220 179.000 1.000
16.240 179.000 1.000
16.260 187.000 1.000
16.280 172.000 1.000
16.300 192.000 1.000
16.320 177.000 1.000
16.340 175.000 1.000
16.360 190.000 1.000
16.380 176.000 1.000
16.400 168.000 1.000
16.420 170.000 1.000
16.440 176.000 1.000
16.460 163.000 1.000
16.480 168.000 1.000
16.500 177.000 1.000
16.520 190.000 1.000
16.540 192.000 1.000
16.560 207.000 1.000
16.580 211.000 1.000
16.600 183.000 1.000
16.620 183.000 1.000
16.640 183.000 1.000
16.660 200.000 1.000
16.680 176.000 1.000
16.700 185.000 1.000
16.720 188.000 1.000
16.740 172.000 1.000
16.760 173.000 1.000
16.780 198.000 1.000
16.800 198.000 1.000
16.820 195.000 1.000
16.840 183.000 1.000
16.860 188.000 1.000
16.880 179.000 1.000
16.900 170.000 1.000
16.920 175.000 1.000
16.940 194.000 1.000
16.960 184.000 1.000
16.980 183.000 1.000
17.000 179.000 1.000
17.020 181.000 1.000
17.040 181.000 1.000
17.060 173.000 1.000
17.080 189.000 1.000
17.100 200.000 1.000
17.120 190.000 1.000
17.140 189.000 1.000
17.160 180.000 1.000
17.180 176.000 1.000
17.200 188.000 1.000
17.220 180.000 1.000
17.240 190.000 1.000
17.260 179.000 1.000
17.280 170.000 1.000
17.300 194.000 1.000
17.320 199.000 1.000
17.340 184.000 1.000
17.360 182.000 1.000
17.380 169.000 1.000
17.400 180.000 1.000
17.420 189.000 1.000
17.440 195.000 1.000
17.460 189.000 1.000
17.480 182.000 1.000
17.500 188.000 1.000
17.520 182.000 1.000
17.540 175.000 1.000
17.560 189.000 1.000
17.580 192.000 1.000
17.600 191.000 1.000
17.620 187.000 1.000
17.640 188.000 1.000
17.660 191.000 1.000
17.680 198.000 1.000
17.700 189.000 1.000
17.720 182.000 1.000
17.740 179.000 1.000
17.760 186.000 1.000
17.780 190.000 1.000
17.800 195.000 1.000
17.820 197.000 1.000
17.840 182.000 1.000
17.860 189.000 1.000
17.880 174.000 1.000
17.900 191.000 1.000
17.920 178.000 1.000
17.940 181.000 1.000
17.960 192.000 1.000
17.980 199.000 1.000
18.000 197.000 1.000
18.020 199.000 1.000
18.040 209.000 1.000
18.060 197.000 1.000
18.080 183.000 1.000
18.100 175.000 1.000
18.120 180.000 1.000
18.140 194.000 1.000
18.160 199.000 1.000
18.180 181.000 1.000
18.200 202.000 1.000
18.220 196.000 1.000
18.240 183.000 1.000
18.260 183.000 1.000
18.280 186.000 1.000
18.300 198.000 1.000
18.320 193.000 1.000
18.340 164.000 1.000
18.360 166.000 1.000
18.380 181.000 1.000
18.400 185.000 1.000
18.420 189.000 1.000
18.440 195.000 1.000
18.460 185.000 1.000
18.480 191.000 1.000
18.500 183.000 1.000
18.520 197.000 1.000
18.540 177.000 1.000
18.560 174.000 1.000
18.580 177.000 1.000
18.600 172.000 1.000
18.620 178.000 1.000
18.640 185.000 1.000
18.660 209.000 1.000
18.680 199.000 1.000
18.700 199.000 1.000
18.720 188.000 1.000
18.740 193.000 1.000
18.760 203.000 1.000
18.780 190.000 1.000
18.800 191.000 1.000
18.820 194.000 1.000
18.840 190.000 1.000
18.860 212.000 1.000
18.880 213.000 1.000
18.900 203.000 1.000
18.920 222.000 1.000
18.940 199.000 1.000
18.960 200.000 1.000
18.980 193.000 1.000
19.000 211.000 1.000
19.020 194.000 1.000
19.040 193.000 1.000
19.060 193.000 1.000
19.080 178.000 1.000
19.100 201.000 1.000
19.120 197.000 1.000
19.140 195.000 1.000
19.160 191.000 1.000
19.180 209.000 1.000
19.200 196.000 1.000
19.220 210.000 1.000
19.240 206.000 1.000
19.260 206.000 1.000
19.280 202.000 1.000
19.300 202.000 1.000
19.320 210.000 1.000
19.340 199.000 1.000
19.360 196.000 1.000
19.380 209.000 1.000
19.400 228.000 1.000
19.420 208.000 1.000
19.440 200.000 1.000
19.460 213.000 1.000
19.480 221.000 1.000
19.500 217.000 1.000
19.520 203.000 1.000
19.540 205.000 1.000
19.560 212.000 1.000
19.580 204.000 1.000
19.600 213.000 1.000
19.620 225.000 1.000
19.640 230.000 1.000
19.660 231.000 1.000
19.680 222.000 1.000
19.700 211.000 1.000
19.720 229.000 1.000
19.740 227.000 1.000
19.760 208.000 1.000
19.780 205.000 1.000
19.800 218.000 1.000
19.820 210.000 1.000
19.840 218.000 1.000
19.860 217.000 1.000
19.880 211.000 1.000
19.900 203.000 1.000
19.920 205.000 1.000
19.940 188.000 1.000
19.960 219.000 1.000
19.980 204.000 1.000
20.000 214.000 1.000
20.020 212.000 1.000
