*RAS_DATA_START
*RAS_HEADER_START
*CORR_POS_DB_NAME "DTEX_11112016"
*CORR_POS_GONIO_RADIUS ""
*CORR_POS_NODE_INDEX01 ""
*CORR_POS_NODE_INDEX02 ""
*CORR_POS_NODE_INDEX03 ""
*CORR_POS_NODE_INDEX04 ""
*CORR_POS_NODE_INDEX05 ""
*CORR_POS_NODE_INDEX06 ""
*CORR_POS_NODE_INDEX07 ""
*CORR_POS_NODE_INDEX08 ""
*CORR_POS_NODE_INDEX09 ""
*CORR_POS_NODE_INDEX10 ""
*CORR_POS_NODE_INDEX11 ""
*CORR_POS_NODE_LABEL01 "Si(111)"
*CORR_POS_NODE_LABEL02 "Si(220)"
*CORR_POS_NODE_LABEL03 "Si(311)"
*CORR_POS_NODE_LABEL04 "Si(400)"
*CORR_POS_NODE_LABEL05 "Si(331)"
*CORR_POS_NODE_LABEL06 "Si(422)"
*CORR_POS_NODE_LABEL07 "Si(511)"
*CORR_POS_NODE_LABEL08 "Si(440)"
*CORR_POS_NODE_LABEL09 "Si(531)"
*CORR_POS_NODE_LABEL10 "Si(620)"
*CORR_POS_NODE_LABEL11 "Si(533)"
*CORR_POS_NODE_POS_CALC01 "28.4137"
*CORR_POS_NODE_POS_CALC02 "47.2707"
*CORR_POS_NODE_POS_CALC03 "56.0883"
*CORR_POS_NODE_POS_CALC04 "69.0934"
*CORR_POS_NODE_POS_CALC05 "76.3385"
*CORR_POS_NODE_POS_CALC06 "87.9915"
*CORR_POS_NODE_POS_CALC07 "94.9137"
*CORR_POS_NODE_POS_CALC08 "106.67"
*CORR_POS_NODE_POS_CALC09 "114.054"
*CORR_POS_NODE_POS_CALC10 "127.508"
*CORR_POS_NODE_POS_CALC11 "136.858"
*CORR_POS_NODE_POS_MEAS01 "28.3712"
*CORR_POS_NODE_POS_MEAS02 "47.2304"
*CORR_POS_NODE_POS_MEAS03 "56.0465"
*CORR_POS_NODE_POS_MEAS04 "69.0523"
*CORR_POS_NODE_POS_MEAS05 "76.2993"
*CORR_POS_NODE_POS_MEAS06 "87.9512"
*CORR_POS_NODE_POS_MEAS07 "94.8772"
*CORR_POS_NODE_POS_MEAS08 "106.636"
*CORR_POS_NODE_POS_MEAS09 "114.028"
*CORR_POS_NODE_POS_MEAS10 "127.48"
*CORR_POS_NODE_POS_MEAS11 "136.839"
*CORR_POS_OPT_ATTR "集中法"
*CORR_POS_PARAM_MU ""
*CORR_POS_PARAM_PL ""
*CORR_POS_SEMODEL_TYPE "0"
*CORR_POS_STANDARD_TYPE ""
*CORR_POS_VALUE_ANALYZER "None"
*CORR_POS_VALUE_CMONO "None"
*CORR_POS_VALUE_IMONO "None"
*CORR_POS_VALUE_IS "0.625deg"
*CORR_POS_VALUE_ISL "10.0mm"
*CORR_POS_VALUE_ISOLLER "2.5deg"
*CORR_POS_VALUE_RS1 "13.0mm"
*CORR_POS_VALUE_RS2 "13.0mm"
*CORR_POS_VALUE_RSOLLER "2.5deg"
*CORR_POS_XG_FOCUS_L ""
*CORR_POS_XG_WAVE_TYPE ""
*CORR_POS_XG_WAVE_VALUE ""
*DISP_FMT_X "%.2f"
*DISP_FMT_Y "%.0f"
*DISP_FULLSCALE "6734.4000000000"
*DISP_LINE_COLOR "255.0000000000"
*DISP_LINE_STYLE "0.0000000000"
*DISP_LINE_WIDTH "0.2500000000"
*DISP_NOTE "Collected Data-3"
*DISP_OFFSET_Y "0.0000000000"
*DISP_PEAKSEARCH_UNIT_Y "COUNTS"
*DISP_RANGE_BOTTOM "0.0000000000"
*DISP_RANGE_LEFT "20.0000000000"
*DISP_RANGE_LOGCUTOFF "0.0100000000"
*DISP_RANGE_RIGHT "90.0000000000"
*DISP_RANGE_TOP "6734.4000000000"
*DISP_SCALE_MODE_Y "0.0000000000"
*DISP_TAB_NAME "Theta/2-Theta"
*DISP_TITLE_Y "Intensity"
*DISP_UNIT_Y "COUNTS"
*DISP_WINDOW_NAME "MSG_MACROENGINE"
*FILE_COMMENT " "
*FILE_MD5 ""
*FILE_MEMO " "
*FILE_OPERATOR "MiniFlex"
*FILE_PART_ID "MEAS_PBEA_00223"
*FILE_SAMPLE "cu2o_011_20-90_2theta_speed20_step0.02"
*FILE_TYPE "RAS_RAW"
*FILE_USERGROUP "System User"
*FILE_VERSION "1.0000000000"
*HW_ATTACHMENT_ID "ATT1031"
*HW_ATTACHMENT_NAME "6サンプルチェンジャ|ASC-6"
*HW_COUNTER_ID-0 "CUT0025"
*HW_COUNTER_ID-1 "CUT0020"
*HW_COUNTER_ID-2 "CUT0020"
*HW_COUNTER_ID-3 "CMC0021"
*HW_COUNTER_NAME-0 "D/teX Ultra|D/teX Ultra"
*HW_COUNTER_NAME-1 "None|None"
*HW_COUNTER_NAME-2 "None|None"
*HW_COUNTER_NAME-3 "検出器モノクロメータ|Detector monochromator"
*HW_COUNTER_SELECT_NAME "D/teX Ultra|D/teX Ultra"
*HW_GONIOMETER_ID "GON0070"
*HW_GONIOMETER_NAME "MiniFlex 300/600|MiniFlex 300/600"
*HW_GONIOMETER_RADIUS-0 "79.0"
*HW_GONIOMETER_RADIUS-1 "91.5"
*HW_GONIOMETER_RADIUS-2 "150.0"
*HW_GONIOMETER_RADIUS-3 "0"
*HW_GONIOMETER_RADIUS-4 "103.4"
*HW_GONIOMETER_RADIUS-5 "150.0"
*HW_GONIOMETER_RADIUS-6 "46.6"
*HW_GONIOMETER_RADIUS-7 "160.0"
*HW_I_OPT_ID-0 "ISL0021"
*HW_I_OPT_ID-1 "ISO0021"
*HW_I_OPT_NAME-0 "発散スリット|Divergence slit"
*HW_I_OPT_NAME-1 "入射平行スリット|Incident parallel slit"
*HW_R_ATTENUATER_AUTOMODE "0"
*HW_R_OPT_ID-0 "RSS0021"
*HW_R_OPT_ID-1 "RSO0021"
*HW_R_OPT_ID-2 "RRS0021"
*HW_R_OPT_NAME-0 "散乱スリット|Scattering slit"
*HW_R_OPT_NAME-1 "受光平行スリット|Receiving soller slit"
*HW_R_OPT_NAME-2 "受光スリット|Receiving slit"
*HW_SAMPLE_HOLDER_ID "SMP0000"
*HW_SAMPLE_HOLDER_NAME "無し|None"
*HW_XG_CURRENT_MAX "15"
*HW_XG_CURRENT_MIN "2"
*HW_XG_CURRENT_RESOLUTION "1"
*HW_XG_CURRENT_UNIT "mA"
*HW_XG_FOCUS "1mm x 10mm"
*HW_XG_FOCUS_TYPE "Normal"
*HW_XG_ID "1060"
*HW_XG_NAME "300W/600W 封入管-B|300W/600W Sealed tube-B"
*HW_XG_TARGET_ATOMIC_NUMBER "29.0000000000"
*HW_XG_TARGET_NAME "Cu"
*HW_XG_TYPE "Hermetic"
*HW_XG_VOLTAGE_MAX "40"
*HW_XG_VOLTAGE_MIN "20"
*HW_XG_VOLTAGE_RESOLUTION "1"
*HW_XG_VOLTAGE_UNIT "kV"
*HW_XG_WATT_MAX "1"
*HW_XG_WATT_UNIT "kW"
*HW_XG_WAVE_LENGTH_ALPHA1 "1.540593"
*HW_XG_WAVE_LENGTH_ALPHA2 "1.544414"
*HW_XG_WAVE_LENGTH_BETA "1.392250"
*MEAS_COND_AXIS_NAME-0 "Theta/2-Theta"
*MEAS_COND_AXIS_NAME-1 "Spin"
*MEAS_COND_AXIS_NAME-2 "Change"
*MEAS_COND_AXIS_NAME-3 "Soller(inc.)"
*MEAS_COND_AXIS_NAME-4 "IHS"
*MEAS_COND_AXIS_NAME-5 "DS"
*MEAS_COND_AXIS_NAME-6 "SS"
*MEAS_COND_AXIS_NAME-7 "Soller(rec.)"
*MEAS_COND_AXIS_NAME-8 "RS"
*MEAS_COND_AXIS_NAME-9 "Filter"
*MEAS_COND_AXIS_NAME-10 "Monochromator"
*MEAS_COND_AXIS_NAME-11 "PHA"
*MEAS_COND_AXIS_NAME_INTERNAL-0 "TwoThetaTheta"
*MEAS_COND_AXIS_NAME_INTERNAL-1 "Spin"
*MEAS_COND_AXIS_NAME_INTERNAL-2 "Change"
*MEAS_COND_AXIS_NAME_INTERNAL-3 "IncidentSollerSlit"
*MEAS_COND_AXIS_NAME_INTERNAL-4 "IncidentAxdSlit"
*MEAS_COND_AXIS_NAME_INTERNAL-5 "IncidentSlitBox"
*MEAS_COND_AXIS_NAME_INTERNAL-6 "ReceivingSlitBox1"
*MEAS_COND_AXIS_NAME_INTERNAL-7 "ReceivingSollerSlit"
*MEAS_COND_AXIS_NAME_INTERNAL-8 "ReceivingSlitBox2"
*MEAS_COND_AXIS_NAME_INTERNAL-9 "Filter"
*MEAS_COND_AXIS_NAME_INTERNAL-10 "CounterMonochromator"
*MEAS_COND_AXIS_NAME_INTERNAL-11 "PHA"
*MEAS_COND_AXIS_NAME_MAGICNO-0 "268632064.0000000000"
*MEAS_COND_AXIS_NAME_MAGICNO-1 "16842752.0000000000"
*MEAS_COND_AXIS_NAME_MAGICNO-2 "16842752.0000000000"
*MEAS_COND_AXIS_NAME_MAGICNO-3 "20971521.0000000000"
*MEAS_COND_AXIS_NAME_MAGICNO-4 "22020097.0000000000"
*MEAS_COND_AXIS_NAME_MAGICNO-5 "22020097.0000000000"
*MEAS_COND_AXIS_NAME_MAGICNO-6 "23068673.0000000000"
*MEAS_COND_AXIS_NAME_MAGICNO-7 "20971521.0000000000"
*MEAS_COND_AXIS_NAME_MAGICNO-8 "23068673.0000000000"
*MEAS_COND_AXIS_NAME_MAGICNO-9 "20971521.0000000000"
*MEAS_COND_AXIS_NAME_MAGICNO-10 "20971521.0000000000"
*MEAS_COND_AXIS_NAME_MAGICNO-11 "0.0000000000"
*MEAS_COND_AXIS_OFFSET-0 "0.0000000000"
*MEAS_COND_AXIS_OFFSET-1 "-"
*MEAS_COND_AXIS_OFFSET-2 "-"
*MEAS_COND_AXIS_OFFSET-3 "-"
*MEAS_COND_AXIS_OFFSET-4 "-"
*MEAS_COND_AXIS_OFFSET-5 "-"
*MEAS_COND_AXIS_OFFSET-6 "-"
*MEAS_COND_AXIS_OFFSET-7 "-"
*MEAS_COND_AXIS_OFFSET-8 "-"
*MEAS_COND_AXIS_OFFSET-9 "-"
*MEAS_COND_AXIS_OFFSET-10 "-"
*MEAS_COND_AXIS_OFFSET-11 "-"
*MEAS_COND_AXIS_POSITION-0 "10.0000000000"
*MEAS_COND_AXIS_POSITION-1 "0.0000000000"
*MEAS_COND_AXIS_POSITION-2 "4.0000000000"
*MEAS_COND_AXIS_POSITION-3 "2.5deg"
*MEAS_COND_AXIS_POSITION-4 "2.0mm"
*MEAS_COND_AXIS_POSITION-5 "0.625deg"
*MEAS_COND_AXIS_POSITION-6 "13.0mm(Open)"
*MEAS_COND_AXIS_POSITION-7 "2.5deg"
*MEAS_COND_AXIS_POSITION-8 "13.0mm"
*MEAS_COND_AXIS_POSITION-9 "K-beta(x1)"
*MEAS_COND_AXIS_POSITION-10 "None"
*MEAS_COND_AXIS_POSITION-11 "41.0000000000"
*MEAS_COND_AXIS_UNIT-0 "deg"
*MEAS_COND_AXIS_UNIT-1 ""
*MEAS_COND_AXIS_UNIT-2 ""
*MEAS_COND_AXIS_UNIT-3 ""
*MEAS_COND_AXIS_UNIT-4 ""
*MEAS_COND_AXIS_UNIT-5 ""
*MEAS_COND_AXIS_UNIT-6 ""
*MEAS_COND_AXIS_UNIT-7 ""
*MEAS_COND_AXIS_UNIT-8 ""
*MEAS_COND_AXIS_UNIT-9 ""
*MEAS_COND_AXIS_UNIT-10 ""
*MEAS_COND_AXIS_UNIT-11 "div"
*MEAS_COND_CORRECTION_SLIT_COUNTERMONO "None"
*MEAS_COND_CORRECTION_SLIT_DS "0.625deg"
*MEAS_COND_CORRECTION_SLIT_FILTER "None"
*MEAS_COND_CORRECTION_SLIT_IHS "2.0mm"
*MEAS_COND_CORRECTION_SLIT_RS "13.0mm"
*MEAS_COND_CORRECTION_SLIT_SOLLER_INC "2.5deg"
*MEAS_COND_CORRECTION_SLIT_SOLLER_REC "2.5deg"
*MEAS_COND_CORRECTION_SLIT_SS "13.0mm"
*MEAS_COND_COUNTER_CNTLOSS_CORR "0.0000000000"
*MEAS_COND_COUNTER_PHABASE "41.0000000000"
*MEAS_COND_COUNTER_PHAWINDOW "14.0000000000"
*MEAS_COND_COUNTER_PHA_UNIT "div"
*MEAS_COND_COUNTER_TAUDIFF "0.2500000000"
*MEAS_COND_COUNTER_TAUINT "0.7500000000"
*MEAS_COND_IRRADIATION_MODE "OFF"
*MEAS_COND_IRRADIATION_WIDTH ""
*MEAS_COND_OPT_ATTR " "
*MEAS_COND_OPT_NAME ""
*MEAS_COND_UNSYMMETRIC_MODE "OFF"
*MEAS_COND_XG_CURRENT "15.0000000000"
*MEAS_COND_XG_VOLTAGE "40.0000000000"
*MEAS_COND_XG_WAVE_TYPE "Ka"
*MEAS_DATA_COUNT "3501.0000000000"
*MEAS_SCAN_AXIS_X "Theta/2-Theta"
*MEAS_SCAN_AXIS_X_INTERNAL "TwoThetaTheta"
*MEAS_SCAN_END_TIME "09/06/17 11:49:24"
*MEAS_SCAN_MODE "CONTINUOUS"
*MEAS_SCAN_MONITOR "0"
*MEAS_SCAN_RESOLUTION_X "0.005"
*MEAS_SCAN_SPEED "20.000"
*MEAS_SCAN_SPEED_UNIT "deg/min"
*MEAS_SCAN_SPEED_USER "20.000"
*MEAS_SCAN_START "20.0000000000"
*MEAS_SCAN_START_TIME "09/06/17 11:45:22"
*MEAS_SCAN_STEP "0.0200000000"
*MEAS_SCAN_STOP "90.0000000000"
*MEAS_SCAN_UNIT_X "deg"
*MEAS_SCAN_UNIT_Y "counts"
*SLIT_SYSTEM "0"
*RAS_HEADER_END
*RAS_INT_START
20.000 117.000 1.000
20.020 117.000 1.000
20.040 117.000 1.000
20.060 129.000 1.000
20.080 127.000 1.000
20.100 135.000 1.000
20.120 139.000 1.000
20.140 145.000 1.000
20.160 148.000 1.000
20.180 136.000 1.000
20.200 120.000 1.000
20.220 128.000 1.000
20.240 143.000 1.000
20.260 140.000 1.000
20.280 151.000 1.000
20.300 134.000 1.000
20.320 129.000 1.000
20.340 123.000 1.000
20.360 124.000 1.000
20.380 131.000 1.000
20.400 149.000 1.000
20.420 143.000 1.000
20.440 139.000 1.000
20.460 151.000 1.000
20.480 145.000 1.000
20.500 131.000 1.000
20.520 125.000 1.000
20.540 126.000 1.000
20.560 139.000 1.000
20.580 136.000 1.000
20.600 122.000 1.000
20.620 132.000 1.000
20.640 153.000 1.000
20.660 151.000 1.000
20.680 147.000 1.000
20.700 138.000 1.000
20.720 126.000 1.000
20.740 155.000 1.000
20.760 144.000 1.000
20.780 144.000 1.000
20.800 147.000 1.000
20.820 145.000 1.000
20.840 138.000 1.000
20.860 136.000 1.000
20.880 154.000 1.000
20.900 145.000 1.000
20.920 152.000 1.000
20.940 146.000 1.000
20.960 157.000 1.000
20.980 156.000 1.000
21.000 146.000 1.000
21.020 143.000 1.000
21.040 169.000 1.000
21.060 141.000 1.000
21.080 149.000 1.000
21.100 136.000 1.000
21.120 138.000 1.000
21.140 150.000 1.000
21.160 154.000 1.000
21.180 163.000 1.000
21.200 157.000 1.000
21.220 158.000 1.000
21.240 160.000 1.000
21.260 160.000 1.000
21.280 155.000 1.000
21.300 151.000 1.000
21.320 142.000 1.000
21.340 133.000 1.000
21.360 137.000 1.000
21.380 147.000 1.000
21.400 148.000 1.000
21.420 142.000 1.000
21.440 141.000 1.000
21.460 143.000 1.000
21.480 155.000 1.000
21.500 154.000 1.000
21.520 147.000 1.000
21.540 147.000 1.000
21.560 144.000 1.000
21.580 158.000 1.000
21.600 159.000 1.000
21.620 136.000 1.000
21.640 153.000 1.000
21.660 138.000 1.000
21.680 147.000 1.000
21.700 146.000 1.000
21.720 156.000 1.000
21.740 159.000 1.000
21.760 152.000 1.000
21.780 153.000 1.000
21.800 148.000 1.000
21.820 143.000 1.000
21.840 150.000 1.000
21.860 133.000 1.000
21.880 134.000 1.000
21.900 151.000 1.000
21.920 161.000 1.000
21.940 148.000 1.000
21.960 147.000 1.000
21.980 157.000 1.000
22.000 155.000 1.000
22.020 160.000 1.000
22.040 156.000 1.000
22.060 175.000 1.000
22.080 175.000 1.000
22.100 164.000 1.000
22.120 173.000 1.000
22.140 161.000 1.000
22.160 162.000 1.000
22.180 177.000 1.000
22.200 165.000 1.000
22.220 149.000 1.000
22.240 152.000 1.000
22.260 166.000 1.000
22.280 157.000 1.000
22.300 163.000 1.000
22.320 161.000 1.000
22.340 149.000 1.000
22.360 148.000 1.000
22.380 166.000 1.000
22.400 183.000 1.000
22.420 183.000 1.000
22.440 176.000 1.000
22.460 173.000 1.000
22.480 165.000 1.000
22.500 167.000 1.000
22.520 153.000 1.000
22.540 161.000 1.000
22.560 180.000 1.000
22.580 165.000 1.000
22.600 163.000 1.000
22.620 176.000 1.000
22.640 161.000 1.000
22.660 155.000 1.000
22.680 167.000 1.000
22.700 179.000 1.000
22.720 192.000 1.000
22.740 174.000 1.000
22.760 156.000 1.000
22.780 173.000 1.000
22.800 164.000 1.000
22.820 181.000 1.000
22.840 171.000 1.000
22.860 176.000 1.000
22.880 179.000 1.000
22.900 173.000 1.000
22.920 166.000 1.000
22.940 187.000 1.000
22.960 189.000 1.000
22.980 197.000 1.000
23.000 194.000 1.000
23.020 178.000 1.000
23.040 168.000 1.000
23.060 181.000 1.000
23.080 192.000 1.000
23.100 192.000 1.000
23.120 194.000 1.000
23.140 193.000 1.000
23.160 189.000 1.000
23.180 204.000 1.000
23.200 202.000 1.000
23.220 203.000 1.000
23.240 201.000 1.000
23.260 212.000 1.000
23.280 192.000 1.000
23.300 207.000 1.000
23.320 186.000 1.000
23.340 182.000 1.000
23.360 213.000 1.000
23.380 221.000 1.000
23.400 219.000 1.000
23.420 221.000 1.000
23.440 220.000 1.000
23.460 231.000 1.000
23.480 236.000 1.000
23.500 207.000 1.000
23.520 217.000 1.000
23.540 209.000 1.000
23.560 222.000 1.000
23.580 232.000 1.000
23.600 226.000 1.000
23.620 230.000 1.000
23.640 243.000 1.000
23.660 219.000 1.000
23.680 232.000 1.000
23.700 246.000 1.000
23.720 237.000 1.000
23.740 256.000 1.000
23.760 252.000 1.000
23.780 235.000 1.000
23.800 246.000 1.000
23.820 264.000 1.000
23.840 260.000 1.000
23.860 240.000 1.000
23.880 264.000 1.000
23.900 253.000 1.000
23.920 236.000 1.000
23.940 268.000 1.000
23.960 263.000 1.000
23.980 254.000 1.000
24.000 254.000 1.000
24.020 275.000 1.000
24.040 274.000 1.000
24.060 280.000 1.000
24.080 286.000 1.000
24.100 278.000 1.000
24.120 281.000 1.000
24.140 273.000 1.000
24.160 297.000 1.000
24.180 298.000 1.000
24.200 290.000 1.000
24.220 320.000 1.000
24.240 333.000 1.000
24.260 324.000 1.000
24.280 311.000 1.000
24.300 323.000 1.000
24.320 316.000 1.000
24.340 324.000 1.000
24.360 329.000 1.000
24.380 328.000 1.000
24.400 342.000 1.000
24.420 351.000 1.000
24.440 373.000 1.000
24.460 358.000 1.000
24.480 385.000 1.000
24.500 376.000 1.000
24.520 391.000 1.000
24.540 369.000 1.000
24.560 390.000 1.000
24.580 400.000 1.000
24.600 416.000 1.000
24.620 425.000 1.000
24.640 424.000 1.000
24.660 464.000 1.000
24.680 456.000 1.000
24.700 481.000 1.000
24.720 458.000 1.000
24.740 477.000 1.000
24.760 510.000 1.000
24.780 518.000 1.000
24.800 507.000 1.000
24.820 502.000 1.000
24.840 515.000 1.000
24.860 531.000 1.000
24.880 552.000 1.000
24.900 554.000 1.000
24.920 537.000 1.000
24.940 599.000 1.000
24.960 584.000 1.000
24.980 628.000 1.000
25.000 644.000 1.000
25.020 652.000 1.000
25.040 652.000 1.000
25.060 660.000 1.000
25.080 672.000 1.000
25.100 703.000 1.000
25.120 721.000 1.000
25.140 718.000 1.000
25.160 766.000 1.000
25.180 778.000 1.000
25.200 804.000 1.000
25.220 824.000 1.000
25.240 802.000 1.000
25.260 832.000 1.000
25.280 919.000 1.000
25.300 868.000 1.000
25.320 874.000 1.000
25.340 912.000 1.000
25.360 974.000 1.000
25.380 969.000 1.000
25.400 1006.000 1.000
25.420 1032.000 1.000
25.440 1057.000 1.000
25.460 1123.000 1.000
25.480 1150.000 1.000
25.500 1167.000 1.000
25.520 1161.000 1.000
25.540 1162.000 1.000
25.560 1204.000 1.000
25.580 1209.000 1.000
25.600 1228.000 1.000
25.620 1246.000 1.000
25.640 1318.000 1.000
25.660 1312.000 1.000
25.680 1318.000 1.000
25.700 1317.000 1.000
25.720 1302.000 1.000
25.740 1357.000 1.000
25.760 1425.000 1.000
25.780 1405.000 1.000
25.800 1406.000 1.000
25.820 1463.000 1.000
25.840 1483.000 1.000
25.860 1498.000 1.000
25.880 1576.000 1.000
25.900 1674.000 1.000
25.920 1576.000 1.000
25.940 1637.000 1.000
25.960 1744.000 1.000
25.980 1829.000 1.000
26.000 1965.000 1.000
26.020 2053.000 1.000
26.040 2223.000 1.000
26.060 2389.000 1.000
26.080 2611.000 1.000
26.100 2882.000 1.000
26.120 3296.000 1.000
26.140 3664.000 1.000
26.160 4029.000 1.000
26.180 4471.000 1.000
26.200 4911.000 1.000
26.220 5331.000 1.000
26.240 5598.000 1.000
26.260 5612.000 1.000
26.280 5367.000 1.000
26.300 5103.000 1.000
26.320 4473.000 1.000
26.340 3883.000 1.000
26.360 3226.000 1.000
26.380 2646.000 1.000
26.400 2190.000 1.000
26.420 1787.000 1.000
26.440 1457.000 1.000
26.460 1233.000 1.000
26.480 1073.000 1.000
26.500 961.000 1.000
26.520 850.000 1.000
26.540 782.000 1.000
26.560 742.000 1.000
26.580 690.000 1.000
26.600 676.000 1.000
26.620 603.000 1.000
26.640 564.000 1.000
26.660 550.000 1.000
26.680 539.000 1.000
26.700 503.000 1.000
26.720 497.000 1.000
26.740 498.000 1.000
26.760 461.000 1.000
26.780 424.000 1.000
26.800 428.000 1.000
26.820 447.000 1.000
26.840 439.000 1.000
26.860 407.000 1.000
26.880 413.000 1.000
26.900 384.000 1.000
26.920 361.000 1.000
26.940 341.000 1.000
26.960 355.000 1.000
26.980 337.000 1.000
27.000 330.000 1.000
27.020 336.000 1.000
27.040 330.000 1.000
27.060 311.000 1.000
27.080 291.000 1.000
27.100 314.000 1.000
27.120 309.000 1.000
27.140 296.000 1.000
27.160 314.000 1.000
27.180 295.000 1.000
27.200 262.000 1.000
27.220 290.000 1.000
27.240 282.000 1.000
27.260 263.000 1.000
27.280 268.000 1.000
27.300 278.000 1.000
27.320 261.000 1.000
27.340 252.000 1.000
27.360 235.000 1.000
27.380 238.000 1.000
27.400 265.000 1.000
27.420 251.000 1.000
27.440 227.000 1.000
27.460 260.000 1.000
27.480 230.000 1.000
27.500 227.000 1.000
27.520 239.000 1.000
27.540 218.000 1.000
27.560 236.000 1.000
27.580 230.000 1.000
27.600 242.000 1.000
27.620 224.000 1.000
27.640 223.000 1.000
27.660 207.000 1.000
27.680 215.000 1.000
27.700 209.000 1.000
27.720 209.000 1.000
27.740 212.000 1.000
27.760 203.000 1.000
27.780 207.000 1.000
27.800 193.000 1.000
27.820 191.000 1.000
27.840 174.000 1.000
27.860 189.000 1.000
27.880 195.000 1.000
27.900 196.000 1.000
27.920 194.000 1.000
27.940 187.000 1.000
27.960 187.000 1.000
27.980 174.000 1.000
28.000 180.000 1.000
28.020 189.000 1.000
28.040 189.000 1.000
28.060 193.000 1.000
28.080 186.000 1.000
28.100 182.000 1.000
28.120 162.000 1.000
28.140 164.000 1.000
28.160 168.000 1.000
28.180 164.000 1.000
28.200 179.000 1.000
28.220 169.000 1.000
28.240 173.000 1.000
28.260 188.000 1.000
28.280 189.000 1.000
28.300 172.000 1.000
28.320 192.000 1.000
28.340 186.000 1.000
28.360 182.000 1.000
28.380 163.000 1.000
28.400 172.000 1.000
28.420 166.000 1.000
28.440 161.000 1.000
28.460 148.000 1.000
28.480 152.000 1.000
28.500 164.000 1.000
28.520 183.000 1.000
28.540 167.000 1.000
28.560 147.000 1.000
28.580 167.000 1.000
28.600 165.000 1.000
28.620 161.000 1.000
28.640 160.000 1.000
28.660 165.000 1.000
28.680 156.000 1.000
28.700 155.000 1.000
28.720 176.000 1.000
28.740 158.000 1.000
28.760 150.000 1.000
28.780 153.000 1.000
28.800 163.000 1.000
28.820 170.000 1.000
28.840 155.000 1.000
28.860 147.000 1.000
28.880 142.000 1.000
28.900 157.000 1.000
28.920 154.000 1.000
28.940 137.000 1.000
28.960 156.000 1.000
28.980 140.000 1.000
29.000 160.000 1.000
29.020 156.000 1.000
29.040 153.000 1.000
29.060 176.000 1.000
29.080 163.000 1.000
29.100 149.000 1.000
29.120 165.000 1.000
29.140 172.000 1.000
29.160 179.000 1.000
29.180 178.000 1.000
29.200 184.000 1.000
29.220 166.000 1.000
29.240 160.000 1.000
29.260 148.000 1.000
29.280 149.000 1.000
29.300 138.000 1.000
29.320 146.000 1.000
29.340 143.000 1.000
29.360 161.000 1.000
29.380 170.000 1.000
29.400 172.000 1.000
29.420 177.000 1.000
29.440 172.000 1.000
29.460 191.000 1.000
29.480 208.000 1.000
29.500 223.000 1.000
29.520 242.000 1.000
29.540 240.000 1.000
29.560 238.000 1.000
29.580 218.000 1.000
29.600 216.000 1.000
29.620 212.000 1.000
29.640 190.000 1.000
29.660 202.000 1.000
29.680 178.000 1.000
29.700 151.000 1.000
29.720 158.000 1.000
29.740 149.000 1.000
29.760 150.000 1.000
29.780 122.000 1.000
29.800 155.000 1.000
29.820 136.000 1.000
29.840 140.000 1.000
29.860 157.000 1.000
29.880 142.000 1.000
29.900 127.000 1.000
29.920 139.000 1.000
29.940 148.000 1.000
