*RAS_DATA_START
*RAS_HEADER_START
*CORR_POS_DB_NAME "DTEX_11112016"
*CORR_POS_GONIO_RADIUS ""
*CORR_POS_NODE_INDEX01 ""
*CORR_POS_NODE_INDEX02 ""
*CORR_POS_NODE_INDEX03 ""
*CORR_POS_NODE_INDEX04 ""
*CORR_POS_NODE_INDEX05 ""
*CORR_POS_NODE_INDEX06 ""
*CORR_POS_NODE_INDEX07 ""
*CORR_POS_NODE_INDEX08 ""
*CORR_POS_NODE_INDEX09 ""
*CORR_POS_NODE_INDEX10 ""
*CORR_POS_NODE_INDEX11 ""
*CORR_POS_NODE_LABEL01 "Si(111)"
*CORR_POS_NODE_LABEL02 "Si(220)"
*CORR_POS_NODE_LABEL03 "Si(311)"
*CORR_POS_NODE_LABEL04 "Si(400)"
*CORR_POS_NODE_LABEL05 "Si(331)"
*CORR_POS_NODE_LABEL06 "Si(422)"
*CORR_POS_NODE_LABEL07 "Si(511)"
*CORR_POS_NODE_LABEL08 "Si(440)"
*CORR_POS_NODE_LABEL09 "Si(531)"
*CORR_POS_NODE_LABEL10 "Si(620)"
*CORR_POS_NODE_LABEL11 "Si(533)"
*CORR_POS_NODE_POS_CALC01 "28.4137"
*CORR_POS_NODE_POS_CALC02 "47.2707"
*CORR_POS_NODE_POS_CALC03 "56.0883"
*CORR_POS_NODE_POS_CALC04 "69.0934"
*CORR_POS_NODE_POS_CALC05 "76.3385"
*CORR_POS_NODE_POS_CALC06 "87.9915"
*CORR_POS_NODE_POS_CALC07 "94.9137"
*CORR_POS_NODE_POS_CALC08 "106.67"
*CORR_POS_NODE_POS_CALC09 "114.054"
*CORR_POS_NODE_POS_CALC10 "127.508"
*CORR_POS_NODE_POS_CALC11 "136.858"
*CORR_POS_NODE_POS_MEAS01 "28.3712"
*CORR_POS_NODE_POS_MEAS02 "47.2304"
*CORR_POS_NODE_POS_MEAS03 "56.0465"
*CORR_POS_NODE_POS_MEAS04 "69.0523"
*CORR_POS_NODE_POS_MEAS05 "76.2993"
*CORR_POS_NODE_POS_MEAS06 "87.9512"
*CORR_POS_NODE_POS_MEAS07 "94.8772"
*CORR_POS_NODE_POS_MEAS08 "106.636"
*CORR_POS_NODE_POS_MEAS09 "114.028"
*CORR_POS_NODE_POS_MEAS10 "127.48"
*CORR_POS_NODE_POS_MEAS11 "136.839"
*CORR_POS_OPT_ATTR "集中法"
*CORR_POS_PARAM_MU ""
*CORR_POS_PARAM_PL ""
*CORR_POS_SEMODEL_TYPE "0"
*CORR_POS_STANDARD_TYPE ""
*CORR_POS_VALUE_ANALYZER "None"
*CORR_POS_VALUE_CMONO "None"
*CORR_POS_VALUE_IMONO "None"
*CORR_POS_VALUE_IS "0.625deg"
*CORR_POS_VALUE_ISL "10.0mm"
*CORR_POS_VALUE_ISOLLER "2.5deg"
*CORR_POS_VALUE_RS1 "13.0mm"
*CORR_POS_VALUE_RS2 "13.0mm"
*CORR_POS_VALUE_RSOLLER "2.5deg"
*CORR_POS_XG_FOCUS_L ""
*CORR_POS_XG_WAVE_TYPE ""
*CORR_POS_XG_WAVE_VALUE ""
*DISP_FMT_X "%.2f"
*DISP_FMT_Y "%.0f"
*DISP_FULLSCALE "8712.0000000000"
*DISP_LINE_COLOR "255.0000000000"
*DISP_LINE_STYLE "0.0000000000"
*DISP_LINE_WIDTH "0.2500000000"
*DISP_NOTE "Collected Data-1"
*DISP_OFFSET_Y "0.0000000000"
*DISP_PEAKSEARCH_UNIT_Y "COUNTS"
*DISP_RANGE_BOTTOM "0.0000000000"
*DISP_RANGE_LEFT "20.0000000000"
*DISP_RANGE_LOGCUTOFF "0.0100000000"
*DISP_RANGE_RIGHT "90.0000000000"
*DISP_RANGE_TOP "8712.0000000000"
*DISP_SCALE_MODE_Y "0.0000000000"
*DISP_TAB_NAME "Theta/2-Theta"
*DISP_TITLE_Y "Intensity"
*DISP_UNIT_Y "COUNTS"
*DISP_WINDOW_NAME "MSG_MACROENGINE"
*FILE_COMMENT " "
*FILE_MD5 ""
*FILE_MEMO " "
*FILE_OPERATOR "MiniFlex"
*FILE_PART_ID "MEAS_PBEA_00223"
*FILE_SAMPLE "cu2o_008"
*FILE_TYPE "RAS_RAW"
*FILE_USERGROUP "System User"
*FILE_VERSION "1.0000000000"
*HW_ATTACHMENT_ID "ATT1031"
*HW_ATTACHMENT_NAME "6サンプルチェンジャ|ASC-6"
*HW_COUNTER_ID-0 "CUT0025"
*HW_COUNTER_ID-1 "CUT0020"
*HW_COUNTER_ID-2 "CUT0020"
*HW_COUNTER_ID-3 "CMC0021"
*HW_COUNTER_NAME-0 "D/teX Ultra|D/teX Ultra"
*HW_COUNTER_NAME-1 "None|None"
*HW_COUNTER_NAME-2 "None|None"
*HW_COUNTER_NAME-3 "検出器モノクロメータ|Detector monochromator"
*HW_COUNTER_SELECT_NAME "D/teX Ultra|D/teX Ultra"
*HW_GONIOMETER_ID "GON0070"
*HW_GONIOMETER_NAME "MiniFlex 300/600|MiniFlex 300/600"
*HW_GONIOMETER_RADIUS-0 "79.0"
*HW_GONIOMETER_RADIUS-1 "91.5"
*HW_GONIOMETER_RADIUS-2 "150.0"
*HW_GONIOMETER_RADIUS-3 "0"
*HW_GONIOMETER_RADIUS-4 "103.4"
*HW_GONIOMETER_RADIUS-5 "150.0"
*HW_GONIOMETER_RADIUS-6 "46.6"
*HW_GONIOMETER_RADIUS-7 "160.0"
*HW_I_OPT_ID-0 "ISL0021"
*HW_I_OPT_ID-1 "ISO0021"
*HW_I_OPT_NAME-0 "発散スリット|Divergence slit"
*HW_I_OPT_NAME-1 "入射平行スリット|Incident parallel slit"
*HW_R_ATTENUATER_AUTOMODE "0"
*HW_R_OPT_ID-0 "RSS0021"
*HW_R_OPT_ID-1 "RSO0021"
*HW_R_OPT_ID-2 "RRS0021"
*HW_R_OPT_NAME-0 "散乱スリット|Scattering slit"
*HW_R_OPT_NAME-1 "受光平行スリット|Receiving soller slit"
*HW_R_OPT_NAME-2 "受光スリット|Receiving slit"
*HW_SAMPLE_HOLDER_ID "SMP0000"
*HW_SAMPLE_HOLDER_NAME "無し|None"
*HW_XG_CURRENT_MAX "15"
*HW_XG_CURRENT_MIN "2"
*HW_XG_CURRENT_RESOLUTION "1"
*HW_XG_CURRENT_UNIT "mA"
*HW_XG_FOCUS "1mm x 10mm"
*HW_XG_FOCUS_TYPE "Normal"
*HW_XG_ID "1060"
*HW_XG_NAME "300W/600W 封入管-B|300W/600W Sealed tube-B"
*HW_XG_TARGET_ATOMIC_NUMBER "29.0000000000"
*HW_XG_TARGET_NAME "Cu"
*HW_XG_TYPE "Hermetic"
*HW_XG_VOLTAGE_MAX "40"
*HW_XG_VOLTAGE_MIN "20"
*HW_XG_VOLTAGE_RESOLUTION "1"
*HW_XG_VOLTAGE_UNIT "kV"
*HW_XG_WATT_MAX "1"
*HW_XG_WATT_UNIT "kW"
*HW_XG_WAVE_LENGTH_ALPHA1 "1.540593"
*HW_XG_WAVE_LENGTH_ALPHA2 "1.544414"
*HW_XG_WAVE_LENGTH_BETA "1.392250"
*MEAS_COND_AXIS_NAME-0 "Theta/2-Theta"
*MEAS_COND_AXIS_NAME-1 "Spin"
*MEAS_COND_AXIS_NAME-2 "Change"
*MEAS_COND_AXIS_NAME-3 "Soller(inc.)"
*MEAS_COND_AXIS_NAME-4 "IHS"
*MEAS_COND_AXIS_NAME-5 "DS"
*MEAS_COND_AXIS_NAME-6 "SS"
*MEAS_COND_AXIS_NAME-7 "Soller(rec.)"
*MEAS_COND_AXIS_NAME-8 "RS"
*MEAS_COND_AXIS_NAME-9 "Filter"
*MEAS_COND_AXIS_NAME-10 "Monochromator"
*MEAS_COND_AXIS_NAME-11 "PHA"
*MEAS_COND_AXIS_NAME_INTERNAL-0 "TwoThetaTheta"
*MEAS_COND_AXIS_NAME_INTERNAL-1 "Spin"
*MEAS_COND_AXIS_NAME_INTERNAL-2 "Change"
*MEAS_COND_AXIS_NAME_INTERNAL-3 "IncidentSollerSlit"
*MEAS_COND_AXIS_NAME_INTERNAL-4 "IncidentAxdSlit"
*MEAS_COND_AXIS_NAME_INTERNAL-5 "IncidentSlitBox"
*MEAS_COND_AXIS_NAME_INTERNAL-6 "ReceivingSlitBox1"
*MEAS_COND_AXIS_NAME_INTERNAL-7 "ReceivingSollerSlit"
*MEAS_COND_AXIS_NAME_INTERNAL-8 "ReceivingSlitBox2"
*MEAS_COND_AXIS_NAME_INTERNAL-9 "Filter"
*MEAS_COND_AXIS_NAME_INTERNAL-10 "CounterMonochromator"
*MEAS_COND_AXIS_NAME_INTERNAL-11 "PHA"
*MEAS_COND_AXIS_NAME_MAGICNO-0 "268632064.0000000000"
*MEAS_COND_AXIS_NAME_MAGICNO-1 "16842752.0000000000"
*MEAS_COND_AXIS_NAME_MAGICNO-2 "16842752.0000000000"
*MEAS_COND_AXIS_NAME_MAGICNO-3 "20971521.0000000000"
*MEAS_COND_AXIS_NAME_MAGICNO-4 "22020097.0000000000"
*MEAS_COND_AXIS_NAME_MAGICNO-5 "22020097.0000000000"
*MEAS_COND_AXIS_NAME_MAGICNO-6 "23068673.0000000000"
*MEAS_COND_AXIS_NAME_MAGICNO-7 "20971521.0000000000"
*MEAS_COND_AXIS_NAME_MAGICNO-8 "23068673.0000000000"
*MEAS_COND_AXIS_NAME_MAGICNO-9 "20971521.0000000000"
*MEAS_COND_AXIS_NAME_MAGICNO-10 "20971521.0000000000"
*MEAS_COND_AXIS_NAME_MAGICNO-11 "0.0000000000"
*MEAS_COND_AXIS_OFFSET-0 "0.0000000000"
*MEAS_COND_AXIS_OFFSET-1 "-"
*MEAS_COND_AXIS_OFFSET-2 "-"
*MEAS_COND_AXIS_OFFSET-3 "-"
*MEAS_COND_AXIS_OFFSET-4 "-"
*MEAS_COND_AXIS_OFFSET-5 "-"
*MEAS_COND_AXIS_OFFSET-6 "-"
*MEAS_COND_AXIS_OFFSET-7 "-"
*MEAS_COND_AXIS_OFFSET-8 "-"
*MEAS_COND_AXIS_OFFSET-9 "-"
*MEAS_COND_AXIS_OFFSET-10 "-"
*MEAS_COND_AXIS_OFFSET-11 "-"
*MEAS_COND_AXIS_POSITION-0 "10.0000000000"
*MEAS_COND_AXIS_POSITION-1 "0.0000000000"
*MEAS_COND_AXIS_POSITION-2 "1.0000000000"
*MEAS_COND_AXIS_POSITION-3 "2.5deg"
*MEAS_COND_AXIS_POSITION-4 "2.0mm"
*MEAS_COND_AXIS_POSITION-5 "0.625deg"
*MEAS_COND_AXIS_POSITION-6 "13.0mm(Open)"
*MEAS_COND_AXIS_POSITION-7 "2.5deg"
*MEAS_COND_AXIS_POSITION-8 "13.0mm"
*MEAS_COND_AXIS_POSITION-9 "K-beta(x2)"
*MEAS_COND_AXIS_POSITION-10 "None"
*MEAS_COND_AXIS_POSITION-11 "41.0000000000"
*MEAS_COND_AXIS_UNIT-0 "deg"
*MEAS_COND_AXIS_UNIT-1 ""
*MEAS_COND_AXIS_UNIT-2 ""
*MEAS_COND_AXIS_UNIT-3 ""
*MEAS_COND_AXIS_UNIT-4 ""
*MEAS_COND_AXIS_UNIT-5 ""
*MEAS_COND_AXIS_UNIT-6 ""
*MEAS_COND_AXIS_UNIT-7 ""
*MEAS_COND_AXIS_UNIT-8 ""
*MEAS_COND_AXIS_UNIT-9 ""
*MEAS_COND_AXIS_UNIT-10 ""
*MEAS_COND_AXIS_UNIT-11 "div"
*MEAS_COND_CORRECTION_SLIT_COUNTERMONO "None"
*MEAS_COND_CORRECTION_SLIT_DS "0.625deg"
*MEAS_COND_CORRECTION_SLIT_FILTER "None"
*MEAS_COND_CORRECTION_SLIT_IHS "2.0mm"
*MEAS_COND_CORRECTION_SLIT_RS "13.0mm"
*MEAS_COND_CORRECTION_SLIT_SOLLER_INC "2.5deg"
*MEAS_COND_CORRECTION_SLIT_SOLLER_REC "2.5deg"
*MEAS_COND_CORRECTION_SLIT_SS "13.0mm"
*MEAS_COND_COUNTER_CNTLOSS_CORR "0.0000000000"
*MEAS_COND_COUNTER_PHABASE "41.0000000000"
*MEAS_COND_COUNTER_PHAWINDOW "14.0000000000"
*MEAS_COND_COUNTER_PHA_UNIT "div"
*MEAS_COND_COUNTER_TAUDIFF "0.2500000000"
*MEAS_COND_COUNTER_TAUINT "0.7500000000"
*MEAS_COND_IRRADIATION_MODE "OFF"
*MEAS_COND_IRRADIATION_WIDTH ""
*MEAS_COND_OPT_ATTR " "
*MEAS_COND_OPT_NAME ""
*MEAS_COND_UNSYMMETRIC_MODE "OFF"
*MEAS_COND_XG_CURRENT "15.0000000000"
*MEAS_COND_XG_VOLTAGE "40.0000000000"
*MEAS_COND_XG_WAVE_TYPE "Ka"
*MEAS_DATA_COUNT "3501.0000000000"
*MEAS_SCAN_AXIS_X "Theta/2-Theta"
*MEAS_SCAN_AXIS_X_INTERNAL "TwoThetaTheta"
*MEAS_SCAN_END_TIME "08/14/17 11:25:52"
*MEAS_SCAN_MODE "CONTINUOUS"
*MEAS_SCAN_MONITOR "0"
*MEAS_SCAN_RESOLUTION_X "0.005"
*MEAS_SCAN_SPEED "15.000"
*MEAS_SCAN_SPEED_UNIT "deg/min"
*MEAS_SCAN_SPEED_USER "15.000"
*MEAS_SCAN_START "20.0000000000"
*MEAS_SCAN_START_TIME "08/14/17 11:20:36"
*MEAS_SCAN_STEP "0.0200000000"
*MEAS_SCAN_STOP "90.0000000000"
*MEAS_SCAN_UNIT_X "deg"
*MEAS_SCAN_UNIT_Y "counts"
*SLIT_SYSTEM "0"
*RAS_HEADER_END
*RAS_INT_START
20.000 186.000 1.000
20.020 186.000 1.000
20.040 186.000 1.000
20.060 185.000 1.000
20.080 188.000 1.000
20.100 198.000 1.000
20.120 198.000 1.000
20.140 210.000 1.000
20.160 194.000 1.000
20.180 192.000 1.000
20.200 178.000 1.000
20.220 175.000 1.000
20.240 184.000 1.000
20.260 192.000 1.000
20.280 186.000 1.000
20.300 188.000 1.000
20.320 190.000 1.000
20.340 184.000 1.000
20.360 192.000 1.000
20.380 183.000 1.000
20.400 186.000 1.000
20.420 192.000 1.000
20.440 196.000 1.000
20.460 198.000 1.000
20.480 192.000 1.000
20.500 168.000 1.000
20.520 170.000 1.000
20.540 177.000 1.000
20.560 186.000 1.000
20.580 189.000 1.000
20.600 181.000 1.000
20.620 184.000 1.000
20.640 182.000 1.000
20.660 194.000 1.000
20.680 195.000 1.000
20.700 194.000 1.000
20.720 188.000 1.000
20.740 183.000 1.000
20.760 184.000 1.000
20.780 195.000 1.000
20.800 192.000 1.000
20.820 193.000 1.000
20.840 199.000 1.000
20.860 193.000 1.000
20.880 209.000 1.000
20.900 219.000 1.000
20.920 203.000 1.000
20.940 185.000 1.000
20.960 186.000 1.000
20.980 202.000 1.000
21.000 200.000 1.000
21.020 208.000 1.000
21.040 214.000 1.000
21.060 197.000 1.000
21.080 203.000 1.000
21.100 204.000 1.000
21.120 214.000 1.000
21.140 211.000 1.000
21.160 196.000 1.000
21.180 207.000 1.000
21.200 199.000 1.000
21.220 203.000 1.000
21.240 187.000 1.000
21.260 189.000 1.000
21.280 191.000 1.000
21.300 187.000 1.000
21.320 192.000 1.000
21.340 177.000 1.000
21.360 195.000 1.000
21.380 202.000 1.000
21.400 199.000 1.000
21.420 196.000 1.000
21.440 210.000 1.000
21.460 209.000 1.000
21.480 208.000 1.000
21.500 205.000 1.000
21.520 189.000 1.000
21.540 182.000 1.000
21.560 186.000 1.000
21.580 201.000 1.000
21.600 201.000 1.000
21.620 188.000 1.000
21.640 200.000 1.000
21.660 215.000 1.000
21.680 210.000 1.000
21.700 218.000 1.000
21.720 203.000 1.000
21.740 202.000 1.000
21.760 219.000 1.000
21.780 188.000 1.000
21.800 198.000 1.000
21.820 223.000 1.000
21.840 209.000 1.000
21.860 215.000 1.000
21.880 198.000 1.000
21.900 207.000 1.000
21.920 218.000 1.000
21.940 221.000 1.000
21.960 211.000 1.000
21.980 203.000 1.000
22.000 224.000 1.000
22.020 238.000 1.000
22.040 208.000 1.000
22.060 202.000 1.000
22.080 206.000 1.000
22.100 208.000 1.000
22.120 237.000 1.000
22.140 249.000 1.000
22.160 227.000 1.000
22.180 210.000 1.000
22.200 207.000 1.000
22.220 205.000 1.000
22.240 189.000 1.000
22.260 226.000 1.000
22.280 234.000 1.000
22.300 237.000 1.000
22.320 204.000 1.000
22.340 207.000 1.000
22.360 218.000 1.000
22.380 205.000 1.000
22.400 185.000 1.000
22.420 210.000 1.000
22.440 225.000 1.000
22.460 241.000 1.000
22.480 230.000 1.000
22.500 226.000 1.000
22.520 211.000 1.000
22.540 219.000 1.000
22.560 220.000 1.000
22.580 208.000 1.000
22.600 232.000 1.000
22.620 210.000 1.000
22.640 220.000 1.000
22.660 213.000 1.000
22.680 213.000 1.000
22.700 224.000 1.000
22.720 241.000 1.000
22.740 226.000 1.000
22.760 235.000 1.000
22.780 243.000 1.000
22.800 235.000 1.000
22.820 239.000 1.000
22.840 237.000 1.000
22.860 273.000 1.000
22.880 260.000 1.000
22.900 247.000 1.000
22.920 247.000 1.000
22.940 233.000 1.000
22.960 238.000 1.000
22.980 237.000 1.000
23.000 226.000 1.000
23.020 245.000 1.000
23.040 238.000 1.000
23.060 243.000 1.000
23.080 256.000 1.000
23.100 257.000 1.000
23.120 254.000 1.000
23.140 242.000 1.000
23.160 266.000 1.000
23.180 279.000 1.000
23.200 279.000 1.000
23.220 250.000 1.000
23.240 259.000 1.000
23.260 289.000 1.000
23.280 268.000 1.000
23.300 279.000 1.000
23.320 268.000 1.000
23.340 284.000 1.000
23.360 285.000 1.000
23.380 287.000 1.000
23.400 299.000 1.000
23.420 292.000 1.000
23.440 302.000 1.000
23.460 316.000 1.000
23.480 305.000 1.000
23.500 318.000 1.000
23.520 306.000 1.000
23.540 293.000 1.000
23.560 286.000 1.000
23.580 304.000 1.000
23.600 318.000 1.000
23.620 303.000 1.000
23.640 284.000 1.000
23.660 318.000 1.000
23.680 307.000 1.000
23.700 305.000 1.000
23.720 347.000 1.000
23.740 330.000 1.000
23.760 325.000 1.000
23.780 332.000 1.000
23.800 346.000 1.000
23.820 333.000 1.000
23.840 330.000 1.000
23.860 348.000 1.000
23.880 322.000 1.000
23.900 340.000 1.000
23.920 352.000 1.000
23.940 366.000 1.000
23.960 361.000 1.000
23.980 382.000 1.000
24.000 390.000 1.000
24.020 377.000 1.000
24.040 386.000 1.000
24.060 384.000 1.000
24.080 348.000 1.000
24.100 394.000 1.000
24.120 406.000 1.000
24.140 405.000 1.000
24.160 376.000 1.000
24.180 399.000 1.000
24.200 404.000 1.000
24.220 417.000 1.000
24.240 445.000 1.000
24.260 414.000 1.000
24.280 419.000 1.000
24.300 448.000 1.000
24.320 436.000 1.000
24.340 442.000 1.000
24.360 457.000 1.000
24.380 487.000 1.000
24.400 476.000 1.000
24.420 475.000 1.000
24.440 508.000 1.000
24.460 506.000 1.000
24.480 519.000 1.000
24.500 540.000 1.000
24.520 545.000 1.000
24.540 534.000 1.000
24.560 579.000 1.000
24.580 579.000 1.000
24.600 567.000 1.000
24.620 591.000 1.000
24.640 609.000 1.000
24.660 597.000 1.000
24.680 647.000 1.000
24.700 657.000 1.000
24.720 661.000 1.000
24.740 659.000 1.000
24.760 685.000 1.000
24.780 715.000 1.000
24.800 721.000 1.000
24.820 703.000 1.000
24.840 709.000 1.000
24.860 721.000 1.000
24.880 736.000 1.000
24.900 777.000 1.000
24.920 782.000 1.000
24.940 807.000 1.000
24.960 806.000 1.000
24.980 833.000 1.000
25.000 882.000 1.000
25.020 922.000 1.000
25.040 923.000 1.000
25.060 937.000 1.000
25.080 953.000 1.000
25.100 923.000 1.000
25.120 940.000 1.000
25.140 985.000 1.000
25.160 1018.000 1.000
25.180 1012.000 1.000
25.200 1057.000 1.000
25.220 1086.000 1.000
25.240 1112.000 1.000
25.260 1174.000 1.000
25.280 1181.000 1.000
25.300 1214.000 1.000
25.320 1221.000 1.000
25.340 1317.000 1.000
25.360 1365.000 1.000
25.380 1365.000 1.000
25.400 1382.000 1.000
25.420 1388.000 1.000
25.440 1437.000 1.000
25.460 1443.000 1.000
25.480 1505.000 1.000
25.500 1575.000 1.000
25.520 1554.000 1.000
25.540 1588.000 1.000
25.560 1608.000 1.000
25.580 1667.000 1.000
25.600 1700.000 1.000
25.620 1751.000 1.000
25.640 1782.000 1.000
25.660 1827.000 1.000
25.680 1835.000 1.000
25.700 1859.000 1.000
25.720 1849.000 1.000
25.740 1902.000 1.000
25.760 1973.000 1.000
25.780 1987.000 1.000
25.800 1997.000 1.000
25.820 2123.000 1.000
25.840 2112.000 1.000
25.860 2201.000 1.000
25.880 2215.000 1.000
25.900 2248.000 1.000
25.920 2338.000 1.000
25.940 2389.000 1.000
25.960 2467.000 1.000
25.980 2547.000 1.000
26.000 2578.000 1.000
26.020 2748.000 1.000
26.040 2789.000 1.000
26.060 3038.000 1.000
26.080 3352.000 1.000
26.100 3610.000 1.000
26.120 3878.000 1.000
26.140 4318.000 1.000
26.160 4670.000 1.000
26.180 5140.000 1.000
26.200 5666.000 1.000
26.220 6087.000 1.000
26.240 6639.000 1.000
26.260 6852.000 1.000
26.280 7024.000 1.000
26.300 7203.000 1.000
26.320 7260.000 1.000
26.340 7044.000 1.000
26.360 6415.000 1.000
26.380 5911.000 1.000
26.400 5149.000 1.000
26.420 4375.000 1.000
26.440 3727.000 1.000
26.460 3114.000 1.000
26.480 2518.000 1.000
26.500 2099.000 1.000
26.520 1788.000 1.000
26.540 1515.000 1.000
26.560 1351.000 1.000
26.580 1244.000 1.000
26.600 1154.000 1.000
26.620 1072.000 1.000
26.640 982.000 1.000
26.660 892.000 1.000
26.680 839.000 1.000
26.700 822.000 1.000
26.720 780.000 1.000
26.740 739.000 1.000
26.760 700.000 1.000
26.780 703.000 1.000
26.800 682.000 1.000
26.820 627.000 1.000
26.840 607.000 1.000
26.860 590.000 1.000
26.880 532.000 1.000
26.900 533.000 1.000
26.920 533.000 1.000
26.940 512.000 1.000
26.960 543.000 1.000
26.980 504.000 1.000
27.000 501.000 1.000
27.020 508.000 1.000
27.040 492.000 1.000
27.060 447.000 1.000
27.080 437.000 1.000
27.100 421.000 1.000
27.120 419.000 1.000
27.140 416.000 1.000
27.160 408.000 1.000
27.180 398.000 1.000
27.200 415.000 1.000
27.220 399.000 1.000
27.240 376.000 1.000
27.260 352.000 1.000
27.280 365.000 1.000
27.300 376.000 1.000
27.320 361.000 1.000
27.340 345.000 1.000
27.360 352.000 1.000
27.380 339.000 1.000
27.400 332.000 1.000
27.420 321.000 1.000
27.440 346.000 1.000
27.460 357.000 1.000
27.480 333.000 1.000
27.500 319.000 1.000
27.520 334.000 1.000
27.540 317.000 1.000
27.560 308.000 1.000
27.580 303.000 1.000
27.600 306.000 1.000
27.620 315.000 1.000
27.640 279.000 1.000
27.660 271.000 1.000
27.680 293.000 1.000
27.700 297.000 1.000
27.720 290.000 1.000
27.740 270.000 1.000
27.760 267.000 1.000
27.780 265.000 1.000
27.800 269.000 1.000
27.820 238.000 1.000
27.840 252.000 1.000
27.860 281.000 1.000
27.880 246.000 1.000
27.900 242.000 1.000
27.920 245.000 1.000
27.940 275.000 1.000
27.960 257.000 1.000
27.980 247.000 1.000
28.000 240.000 1.000
28.020 243.000 1.000
28.040 234.000 1.000
28.060 239.000 1.000
28.080 247.000 1.000
28.100 244.000 1.000
28.120 254.000 1.000
28.140 230.000 1.000
28.160 218.000 1.000
28.180 214.000 1.000
28.200 221.000 1.000
28.220 232.000 1.000
28.240 218.000 1.000
28.260 241.000 1.000
28.280 228.000 1.000
28.300 230.000 1.000
28.320 222.000 1.000
28.340 230.000 1.000
28.360 228.000 1.000
28.380 205.000 1.000
28.400 220.000 1.000
28.420 209.000 1.000
28.440 211.000 1.000
28.460 212.000 1.000
28.480 223.000 1.000
28.500 223.000 1.000
28.520 215.000 1.000
28.540 209.000 1.000
28.560 193.000 1.000
28.580 198.000 1.000
28.600 194.000 1.000
28.620 211.000 1.000
28.640 220.000 1.000
28.660 220.000 1.000
28.680 205.000 1.000
28.700 198.000 1.000
28.720 196.000 1.000
28.740 202.000 1.000
28.760 207.000 1.000
28.780 210.000 1.000
28.800 204.000 1.000
28.820 208.000 1.000
28.840 188.000 1.000
28.860 195.000 1.000
28.880 194.000 1.000
28.900 197.000 1.000
28.920 208.000 1.000
28.940 218.000 1.000
28.960 194.000 1.000
28.980 184.000 1.000
29.000 200.000 1.000
29.020 202.000 1.000
29.040 191.000 1.000
29.060 205.000 1.000
29.080 213.000 1.000
29.100 207.000 1.000
29.120 220.000 1.000
29.140 217.000 1.000
29.160 218.000 1.000
29.180 225.000 1.000
29.200 201.000 1.000
29.220 192.000 1.000
29.240 217.000 1.000
29.260 209.000 1.000
29.280 199.000 1.000
29.300 196.000 1.000
29.320 186.000 1.000
29.340 182.000 1.000
29.360 203.000 1.000
29.380 221.000 1.000
29.400 205.000 1.000
29.420 218.000 1.000
29.440 226.000 1.000
29.460 241.000 1.000
29.480 242.000 1.000
29.500 264.000 1.000
29.520 270.000 1.000
29.540 258.000 1.000
29.560 284.000 1.000
29.580 256.000 1.000
29.600 292.000 1.000
29.620 288.000 1.000
29.640 267.000 1.000
29.660 260.000 1.000
29.680 263.000 1.000
29.700 250.000 1.000
29.720 228.000 1.000
29.740 213.000 1.000
29.760 209.000 1.000
29.780 197.000 1.000
29.800 190.000 1.000
29.820 177.000 1.000
29.840 186.000 1.000
29.860 193.000 1.000
29.880 180.000 1.000
29.900 167.000 1.000
29.920 177.000 1.000
29.940 191.000 1.000
29.960 172.000 1.000
