*RAS_DATA_START
*RAS_HEADER_START
*CORR_POS_DB_NAME "DTEX_11112016"
*CORR_POS_GONIO_RADIUS ""
*CORR_POS_NODE_INDEX01 ""
*CORR_POS_NODE_INDEX02 ""
*CORR_POS_NODE_INDEX03 ""
*CORR_POS_NODE_INDEX04 ""
*CORR_POS_NODE_INDEX05 ""
*CORR_POS_NODE_INDEX06 ""
*CORR_POS_NODE_INDEX07 ""
*CORR_POS_NODE_INDEX08 ""
*CORR_POS_NODE_INDEX09 ""
*CORR_POS_NODE_INDEX10 ""
*CORR_POS_NODE_INDEX11 ""
*CORR_POS_NODE_LABEL01 "Si(111)"
*CORR_POS_NODE_LABEL02 "Si(220)"
*CORR_POS_NODE_LABEL03 "Si(311)"
*CORR_POS_NODE_LABEL04 "Si(400)"
*CORR_POS_NODE_LABEL05 "Si(331)"
*CORR_POS_NODE_LABEL06 "Si(422)"
*CORR_POS_NODE_LABEL07 "Si(511)"
*CORR_POS_NODE_LABEL08 "Si(440)"
*CORR_POS_NODE_LABEL09 "Si(531)"
*CORR_POS_NODE_LABEL10 "Si(620)"
*CORR_POS_NODE_LABEL11 "Si(533)"
*CORR_POS_NODE_POS_CALC01 "28.4137"
*CORR_POS_NODE_POS_CALC02 "47.2707"
*CORR_POS_NODE_POS_CALC03 "56.0883"
*CORR_POS_NODE_POS_CALC04 "69.0934"
*CORR_POS_NODE_POS_CALC05 "76.3385"
*CORR_POS_NODE_POS_CALC06 "87.9915"
*CORR_POS_NODE_POS_CALC07 "94.9137"
*CORR_POS_NODE_POS_CALC08 "106.67"
*CORR_POS_NODE_POS_CALC09 "114.054"
*CORR_POS_NODE_POS_CALC10 "127.508"
*CORR_POS_NODE_POS_CALC11 "136.858"
*CORR_POS_NODE_POS_MEAS01 "28.3712"
*CORR_POS_NODE_POS_MEAS02 "47.2304"
*CORR_POS_NODE_POS_MEAS03 "56.0465"
*CORR_POS_NODE_POS_MEAS04 "69.0523"
*CORR_POS_NODE_POS_MEAS05 "76.2993"
*CORR_POS_NODE_POS_MEAS06 "87.9512"
*CORR_POS_NODE_POS_MEAS07 "94.8772"
*CORR_POS_NODE_POS_MEAS08 "106.636"
*CORR_POS_NODE_POS_MEAS09 "114.028"
*CORR_POS_NODE_POS_MEAS10 "127.48"
*CORR_POS_NODE_POS_MEAS11 "136.839"
*CORR_POS_OPT_ATTR "集中法"
*CORR_POS_PARAM_MU ""
*CORR_POS_PARAM_PL ""
*CORR_POS_SEMODEL_TYPE "0"
*CORR_POS_STANDARD_TYPE ""
*CORR_POS_VALUE_ANALYZER "None"
*CORR_POS_VALUE_CMONO "None"
*CORR_POS_VALUE_IMONO "None"
*CORR_POS_VALUE_IS "0.625deg"
*CORR_POS_VALUE_ISL "10.0mm"
*CORR_POS_VALUE_ISOLLER "2.5deg"
*CORR_POS_VALUE_RS1 "13.0mm"
*CORR_POS_VALUE_RS2 "13.0mm"
*CORR_POS_VALUE_RSOLLER "2.5deg"
*CORR_POS_XG_FOCUS_L ""
*CORR_POS_XG_WAVE_TYPE ""
*CORR_POS_XG_WAVE_VALUE ""
*DISP_FMT_X "%.2f"
*DISP_FMT_Y "%.0f"
*DISP_FULLSCALE "5745.6000000000"
*DISP_LINE_COLOR "255.0000000000"
*DISP_LINE_STYLE "0.0000000000"
*DISP_LINE_WIDTH "0.2500000000"
*DISP_NOTE "Collected Data-4"
*DISP_OFFSET_Y "0.0000000000"
*DISP_PEAKSEARCH_UNIT_Y "COUNTS"
*DISP_RANGE_BOTTOM "0.0000000000"
*DISP_RANGE_LEFT "10.0000000000"
*DISP_RANGE_LOGCUTOFF "0.0100000000"
*DISP_RANGE_RIGHT "90.0000000000"
*DISP_RANGE_TOP "5745.6000000000"
*DISP_SCALE_MODE_Y "0.0000000000"
*DISP_TAB_NAME "Theta/2-Theta"
*DISP_TITLE_Y "Intensity"
*DISP_UNIT_Y "counts"
*DISP_WINDOW_NAME "MSG_MACROENGINE"
*FILE_COMMENT " "
*FILE_MD5 ""
*FILE_MEMO " "
*FILE_OPERATOR "MiniFlex"
*FILE_PART_ID "MEAS_PBEA_00223"
*FILE_SAMPLE "cu2o_002_test"
*FILE_TYPE "RAS_RAW"
*FILE_USERGROUP "System User"
*FILE_VERSION "1.0000000000"
*HW_ATTACHMENT_ID "ATT1031"
*HW_ATTACHMENT_NAME "6サンプルチェンジャ|ASC-6"
*HW_COUNTER_ID-0 "CUT0025"
*HW_COUNTER_ID-1 "CUT0020"
*HW_COUNTER_ID-2 "CUT0020"
*HW_COUNTER_ID-3 "CMC0021"
*HW_COUNTER_NAME-0 "D/teX Ultra|D/teX Ultra"
*HW_COUNTER_NAME-1 "None|None"
*HW_COUNTER_NAME-2 "None|None"
*HW_COUNTER_NAME-3 "検出器モノクロメータ|Detector monochromator"
*HW_COUNTER_SELECT_NAME "D/teX Ultra|D/teX Ultra"
*HW_GONIOMETER_ID "GON0070"
*HW_GONIOMETER_NAME "MiniFlex 300/600|MiniFlex 300/600"
*HW_GONIOMETER_RADIUS-0 "79.0"
*HW_GONIOMETER_RADIUS-1 "91.5"
*HW_GONIOMETER_RADIUS-2 "150.0"
*HW_GONIOMETER_RADIUS-3 "0"
*HW_GONIOMETER_RADIUS-4 "103.4"
*HW_GONIOMETER_RADIUS-5 "150.0"
*HW_GONIOMETER_RADIUS-6 "46.6"
*HW_GONIOMETER_RADIUS-7 "160.0"
*HW_I_OPT_ID-0 "ISL0021"
*HW_I_OPT_ID-1 "ISO0021"
*HW_I_OPT_NAME-0 "発散スリット|Divergence slit"
*HW_I_OPT_NAME-1 "入射平行スリット|Incident parallel slit"
*HW_R_ATTENUATER_AUTOMODE "0"
*HW_R_OPT_ID-0 "RSS0021"
*HW_R_OPT_ID-1 "RSO0021"
*HW_R_OPT_ID-2 "RRS0021"
*HW_R_OPT_NAME-0 "散乱スリット|Scattering slit"
*HW_R_OPT_NAME-1 "受光平行スリット|Receiving soller slit"
*HW_R_OPT_NAME-2 "受光スリット|Receiving slit"
*HW_SAMPLE_HOLDER_ID "SMP0000"
*HW_SAMPLE_HOLDER_NAME "無し|None"
*HW_XG_CURRENT_MAX "15"
*HW_XG_CURRENT_MIN "2"
*HW_XG_CURRENT_RESOLUTION "1"
*HW_XG_CURRENT_UNIT "mA"
*HW_XG_FOCUS "1mm x 10mm"
*HW_XG_FOCUS_TYPE "Normal"
*HW_XG_ID "1060"
*HW_XG_NAME "300W/600W 封入管-B|300W/600W Sealed tube-B"
*HW_XG_TARGET_ATOMIC_NUMBER "29.0000000000"
*HW_XG_TARGET_NAME "Cu"
*HW_XG_TYPE "Hermetic"
*HW_XG_VOLTAGE_MAX "40"
*HW_XG_VOLTAGE_MIN "20"
*HW_XG_VOLTAGE_RESOLUTION "1"
*HW_XG_VOLTAGE_UNIT "kV"
*HW_XG_WATT_MAX "1"
*HW_XG_WATT_UNIT "kW"
*HW_XG_WAVE_LENGTH_ALPHA1 "1.540593"
*HW_XG_WAVE_LENGTH_ALPHA2 "1.544414"
*HW_XG_WAVE_LENGTH_BETA "1.392250"
*MEAS_COND_AXIS_NAME-0 "Theta/2-Theta"
*MEAS_COND_AXIS_NAME-1 "Spin"
*MEAS_COND_AXIS_NAME-2 "Change"
*MEAS_COND_AXIS_NAME-3 "Soller(inc.)"
*MEAS_COND_AXIS_NAME-4 "IHS"
*MEAS_COND_AXIS_NAME-5 "DS"
*MEAS_COND_AXIS_NAME-6 "SS"
*MEAS_COND_AXIS_NAME-7 "Soller(rec.)"
*MEAS_COND_AXIS_NAME-8 "RS"
*MEAS_COND_AXIS_NAME-9 "Filter"
*MEAS_COND_AXIS_NAME-10 "Monochromator"
*MEAS_COND_AXIS_NAME-11 "PHA"
*MEAS_COND_AXIS_NAME_INTERNAL-0 "TwoThetaTheta"
*MEAS_COND_AXIS_NAME_INTERNAL-1 "Spin"
*MEAS_COND_AXIS_NAME_INTERNAL-2 "Change"
*MEAS_COND_AXIS_NAME_INTERNAL-3 "IncidentSollerSlit"
*MEAS_COND_AXIS_NAME_INTERNAL-4 "IncidentAxdSlit"
*MEAS_COND_AXIS_NAME_INTERNAL-5 "IncidentSlitBox"
*MEAS_COND_AXIS_NAME_INTERNAL-6 "ReceivingSlitBox1"
*MEAS_COND_AXIS_NAME_INTERNAL-7 "ReceivingSollerSlit"
*MEAS_COND_AXIS_NAME_INTERNAL-8 "ReceivingSlitBox2"
*MEAS_COND_AXIS_NAME_INTERNAL-9 "Filter"
*MEAS_COND_AXIS_NAME_INTERNAL-10 "CounterMonochromator"
*MEAS_COND_AXIS_NAME_INTERNAL-11 "PHA"
*MEAS_COND_AXIS_NAME_MAGICNO-0 "268632064.0000000000"
*MEAS_COND_AXIS_NAME_MAGICNO-1 "16842752.0000000000"
*MEAS_COND_AXIS_NAME_MAGICNO-2 "16842752.0000000000"
*MEAS_COND_AXIS_NAME_MAGICNO-3 "20971521.0000000000"
*MEAS_COND_AXIS_NAME_MAGICNO-4 "22020097.0000000000"
*MEAS_COND_AXIS_NAME_MAGICNO-5 "22020097.0000000000"
*MEAS_COND_AXIS_NAME_MAGICNO-6 "23068673.0000000000"
*MEAS_COND_AXIS_NAME_MAGICNO-7 "20971521.0000000000"
*MEAS_COND_AXIS_NAME_MAGICNO-8 "23068673.0000000000"
*MEAS_COND_AXIS_NAME_MAGICNO-9 "20971521.0000000000"
*MEAS_COND_AXIS_NAME_MAGICNO-10 "20971521.0000000000"
*MEAS_COND_AXIS_NAME_MAGICNO-11 "0.0000000000"
*MEAS_COND_AXIS_OFFSET-0 "0.0000000000"
*MEAS_COND_AXIS_OFFSET-1 "-"
*MEAS_COND_AXIS_OFFSET-2 "-"
*MEAS_COND_AXIS_OFFSET-3 "-"
*MEAS_COND_AXIS_OFFSET-4 "-"
*MEAS_COND_AXIS_OFFSET-5 "-"
*MEAS_COND_AXIS_OFFSET-6 "-"
*MEAS_COND_AXIS_OFFSET-7 "-"
*MEAS_COND_AXIS_OFFSET-8 "-"
*MEAS_COND_AXIS_OFFSET-9 "-"
*MEAS_COND_AXIS_OFFSET-10 "-"
*MEAS_COND_AXIS_OFFSET-11 "-"
*MEAS_COND_AXIS_POSITION-0 "10.0000000000"
*MEAS_COND_AXIS_POSITION-1 "0.0000000000"
*MEAS_COND_AXIS_POSITION-2 "1.0000000000"
*MEAS_COND_AXIS_POSITION-3 "2.5deg"
*MEAS_COND_AXIS_POSITION-4 "10.0mm"
*MEAS_COND_AXIS_POSITION-5 "0.625deg"
*MEAS_COND_AXIS_POSITION-6 "13.0mm(Open)"
*MEAS_COND_AXIS_POSITION-7 "2.5deg"
*MEAS_COND_AXIS_POSITION-8 "13.0mm"
*MEAS_COND_AXIS_POSITION-9 "K-beta(x2)"
*MEAS_COND_AXIS_POSITION-10 "None"
*MEAS_COND_AXIS_POSITION-11 "41.0000000000"
*MEAS_COND_AXIS_UNIT-0 "deg"
*MEAS_COND_AXIS_UNIT-1 ""
*MEAS_COND_AXIS_UNIT-2 ""
*MEAS_COND_AXIS_UNIT-3 ""
*MEAS_COND_AXIS_UNIT-4 ""
*MEAS_COND_AXIS_UNIT-5 ""
*MEAS_COND_AXIS_UNIT-6 ""
*MEAS_COND_AXIS_UNIT-7 ""
*MEAS_COND_AXIS_UNIT-8 ""
*MEAS_COND_AXIS_UNIT-9 ""
*MEAS_COND_AXIS_UNIT-10 ""
*MEAS_COND_AXIS_UNIT-11 "div"
*MEAS_COND_CORRECTION_SLIT_COUNTERMONO "None"
*MEAS_COND_CORRECTION_SLIT_DS "0.625deg"
*MEAS_COND_CORRECTION_SLIT_FILTER "None"
*MEAS_COND_CORRECTION_SLIT_IHS "10.0mm"
*MEAS_COND_CORRECTION_SLIT_RS "13.0mm"
*MEAS_COND_CORRECTION_SLIT_SOLLER_INC "2.5deg"
*MEAS_COND_CORRECTION_SLIT_SOLLER_REC "2.5deg"
*MEAS_COND_CORRECTION_SLIT_SS "13.0mm"
*MEAS_COND_COUNTER_CNTLOSS_CORR "0.0000000000"
*MEAS_COND_COUNTER_PHABASE "41.0000000000"
*MEAS_COND_COUNTER_PHAWINDOW "14.0000000000"
*MEAS_COND_COUNTER_PHA_UNIT "div"
*MEAS_COND_COUNTER_TAUDIFF "0.2500000000"
*MEAS_COND_COUNTER_TAUINT "0.7500000000"
*MEAS_COND_IRRADIATION_MODE "OFF"
*MEAS_COND_IRRADIATION_WIDTH ""
*MEAS_COND_OPT_ATTR " "
*MEAS_COND_OPT_NAME ""
*MEAS_COND_UNSYMMETRIC_MODE "OFF"
*MEAS_COND_XG_CURRENT "15.0000000000"
*MEAS_COND_XG_VOLTAGE "40.0000000000"
*MEAS_COND_XG_WAVE_TYPE "Ka"
*MEAS_DATA_COUNT "4001.0000000000"
*MEAS_SCAN_AXIS_X "Theta/2-Theta"
*MEAS_SCAN_AXIS_X_INTERNAL "TwoThetaTheta"
*MEAS_SCAN_END_TIME "02/23/17 13:06:10"
*MEAS_SCAN_MODE "CONTINUOUS"
*MEAS_SCAN_MONITOR "0"
*MEAS_SCAN_RESOLUTION_X "0.005"
*MEAS_SCAN_SPEED "20.000"
*MEAS_SCAN_SPEED_UNIT "deg/min"
*MEAS_SCAN_SPEED_USER "20.000"
*MEAS_SCAN_START "10.0000000000"
*MEAS_SCAN_START_TIME "02/23/17 13:01:38"
*MEAS_SCAN_STEP "0.0200000000"
*MEAS_SCAN_STOP "90.0000000000"
*MEAS_SCAN_UNIT_X "deg"
*MEAS_SCAN_UNIT_Y "counts"
*SLIT_SYSTEM "0"
*RAS_HEADER_END
*RAS_INT_START
10.000 91.000 1.000
10.020 91.000 1.000
10.040 91.000 1.000
10.060 105.000 1.000
10.080 103.000 1.000
10.100 102.000 1.000
10.120 102.000 1.000
10.140 113.000 1.000
10.160 113.000 1.000
10.180 120.000 1.000
10.200 118.000 1.000
10.220 107.000 1.000
10.240 95.000 1.000
10.260 110.000 1.000
10.280 109.000 1.000
10.300 109.000 1.000
10.320 113.000 1.000
10.340 109.000 1.000
10.360 105.000 1.000
10.380 99.000 1.000
10.400 118.000 1.000
10.420 113.000 1.000
10.440 118.000 1.000
10.460 114.000 1.000
10.480 113.000 1.000
10.500 105.000 1.000
10.520 111.000 1.000
10.540 102.000 1.000
10.560 96.000 1.000
10.580 101.000 1.000
10.600 101.000 1.000
10.620 102.000 1.000
10.640 114.000 1.000
10.660 116.000 1.000
10.680 102.000 1.000
10.700 112.000 1.000
10.720 114.000 1.000
10.740 116.000 1.000
10.760 104.000 1.000
10.780 100.000 1.000
10.800 106.000 1.000
10.820 113.000 1.000
10.840 98.000 1.000
10.860 100.000 1.000
10.880 92.000 1.000
10.900 104.000 1.000
10.920 113.000 1.000
10.940 109.000 1.000
10.960 109.000 1.000
10.980 114.000 1.000
11.000 115.000 1.000
11.020 110.000 1.000
11.040 102.000 1.000
11.060 101.000 1.000
11.080 106.000 1.000
11.100 115.000 1.000
11.120 111.000 1.000
11.140 93.000 1.000
11.160 96.000 1.000
11.180 95.000 1.000
11.200 102.000 1.000
11.220 108.000 1.000
11.240 101.000 1.000
11.260 106.000 1.000
11.280 113.000 1.000
11.300 112.000 1.000
11.320 99.000 1.000
11.340 116.000 1.000
11.360 110.000 1.000
11.380 104.000 1.000
11.400 109.000 1.000
11.420 99.000 1.000
11.440 103.000 1.000
11.460 127.000 1.000
11.480 115.000 1.000
11.500 105.000 1.000
11.520 109.000 1.000
11.540 124.000 1.000
11.560 115.000 1.000
11.580 106.000 1.000
11.600 102.000 1.000
11.620 98.000 1.000
11.640 99.000 1.000
11.660 105.000 1.000
11.680 114.000 1.000
11.700 100.000 1.000
11.720 102.000 1.000
11.740 102.000 1.000
11.760 112.000 1.000
11.780 110.000 1.000
11.800 98.000 1.000
11.820 102.000 1.000
11.840 105.000 1.000
11.860 103.000 1.000
11.880 88.000 1.000
11.900 95.000 1.000
11.920 112.000 1.000
11.940 110.000 1.000
11.960 116.000 1.000
11.980 105.000 1.000
12.000 106.000 1.000
12.020 100.000 1.000
12.040 115.000 1.000
12.060 103.000 1.000
12.080 112.000 1.000
12.100 113.000 1.000
12.120 106.000 1.000
12.140 108.000 1.000
12.160 116.000 1.000
12.180 104.000 1.000
12.200 105.000 1.000
12.220 109.000 1.000
12.240 109.000 1.000
12.260 103.000 1.000
12.280 106.000 1.000
12.300 102.000 1.000
12.320 112.000 1.000
12.340 111.000 1.000
12.360 107.000 1.000
12.380 97.000 1.000
12.400 101.000 1.000
12.420 108.000 1.000
12.440 110.000 1.000
12.460 118.000 1.000
12.480 125.000 1.000
12.500 104.000 1.000
12.520 108.000 1.000
12.540 109.000 1.000
12.560 109.000 1.000
12.580 114.000 1.000
12.600 107.000 1.000
12.620 107.000 1.000
12.640 101.000 1.000
12.660 97.000 1.000
12.680 103.000 1.000
12.700 88.000 1.000
12.720 97.000 1.000
12.740 107.000 1.000
12.760 95.000 1.000
12.780 101.000 1.000
12.800 94.000 1.000
12.820 100.000 1.000
12.840 94.000 1.000
12.860 104.000 1.000
12.880 104.000 1.000
12.900 95.000 1.000
12.920 103.000 1.000
12.940 105.000 1.000
12.960 95.000 1.000
12.980 95.000 1.000
13.000 107.000 1.000
13.020 110.000 1.000
13.040 107.000 1.000
13.060 104.000 1.000
13.080 95.000 1.000
13.100 91.000 1.000
13.120 106.000 1.000
13.140 97.000 1.000
13.160 83.000 1.000
13.180 96.000 1.000
13.200 99.000 1.000
13.220 108.000 1.000
13.240 116.000 1.000
13.260 97.000 1.000
13.280 105.000 1.000
13.300 110.000 1.000
13.320 108.000 1.000
13.340 101.000 1.000
13.360 102.000 1.000
13.380 96.000 1.000
13.400 105.000 1.000
13.420 108.000 1.000
13.440 103.000 1.000
13.460 102.000 1.000
13.480 113.000 1.000
13.500 107.000 1.000
13.520 97.000 1.000
13.540 91.000 1.000
13.560 100.000 1.000
13.580 99.000 1.000
13.600 87.000 1.000
13.620 95.000 1.000
13.640 98.000 1.000
13.660 90.000 1.000
13.680 98.000 1.000
13.700 97.000 1.000
13.720 97.000 1.000
13.740 108.000 1.000
13.760 113.000 1.000
13.780 98.000 1.000
13.800 99.000 1.000
13.820 98.000 1.000
13.840 99.000 1.000
13.860 102.000 1.000
13.880 114.000 1.000
13.900 103.000 1.000
13.920 97.000 1.000
13.940 97.000 1.000
13.960 93.000 1.000
13.980 94.000 1.000
14.000 88.000 1.000
14.020 89.000 1.000
14.040 104.000 1.000
14.060 99.000 1.000
14.080 82.000 1.000
14.100 107.000 1.000
14.120 105.000 1.000
14.140 101.000 1.000
14.160 103.000 1.000
14.180 111.000 1.000
14.200 92.000 1.000
14.220 99.000 1.000
14.240 99.000 1.000
14.260 97.000 1.000
14.280 97.000 1.000
14.300 92.000 1.000
14.320 98.000 1.000
14.340 101.000 1.000
14.360 111.000 1.000
14.380 92.000 1.000
14.400 95.000 1.000
14.420 107.000 1.000
14.440 108.000 1.000
14.460 106.000 1.000
14.480 89.000 1.000
14.500 91.000 1.000
14.520 92.000 1.000
14.540 94.000 1.000
14.560 102.000 1.000
14.580 97.000 1.000
14.600 103.000 1.000
14.620 95.000 1.000
14.640 90.000 1.000
14.660 84.000 1.000
14.680 93.000 1.000
14.700 98.000 1.000
14.720 82.000 1.000
14.740 93.000 1.000
14.760 101.000 1.000
14.780 76.000 1.000
14.800 82.000 1.000
14.820 107.000 1.000
14.840 103.000 1.000
14.860 102.000 1.000
14.880 93.000 1.000
14.900 91.000 1.000
14.920 100.000 1.000
14.940 95.000 1.000
14.960 91.000 1.000
14.980 104.000 1.000
15.000 89.000 1.000
15.020 91.000 1.000
15.040 103.000 1.000
15.060 98.000 1.000
15.080 94.000 1.000
15.100 86.000 1.000
15.120 87.000 1.000
15.140 87.000 1.000
15.160 88.000 1.000
15.180 90.000 1.000
15.200 90.000 1.000
15.220 102.000 1.000
15.240 92.000 1.000
15.260 91.000 1.000
15.280 98.000 1.000
15.300 84.000 1.000
15.320 93.000 1.000
15.340 79.000 1.000
15.360 97.000 1.000
15.380 94.000 1.000
15.400 102.000 1.000
15.420 96.000 1.000
15.440 89.000 1.000
15.460 99.000 1.000
15.480 106.000 1.000
15.500 109.000 1.000
15.520 104.000 1.000
15.540 94.000 1.000
15.560 102.000 1.000
15.580 95.000 1.000
15.600 90.000 1.000
15.620 91.000 1.000
15.640 87.000 1.000
15.660 94.000 1.000
15.680 104.000 1.000
15.700 102.000 1.000
15.720 109.000 1.000
15.740 98.000 1.000
15.760 84.000 1.000
15.780 96.000 1.000
15.800 96.000 1.000
15.820 102.000 1.000
15.840 101.000 1.000
15.860 102.000 1.000
15.880 95.000 1.000
15.900 94.000 1.000
15.920 90.000 1.000
15.940 97.000 1.000
15.960 102.000 1.000
15.980 94.000 1.000
16.000 97.000 1.000
16.020 94.000 1.000
16.040 83.000 1.000
16.060 99.000 1.000
16.080 91.000 1.000
16.100 92.000 1.000
16.120 92.000 1.000
16.140 97.000 1.000
16.160 101.000 1.000
16.180 101.000 1.000
16.200 85.000 1.000
16.220 85.000 1.000
16.240 91.000 1.000
16.260 97.000 1.000
16.280 96.000 1.000
16.300 87.000 1.000
16.320 86.000 1.000
16.340 99.000 1.000
16.360 96.000 1.000
16.380 101.000 1.000
16.400 96.000 1.000
16.420 92.000 1.000
16.440 85.000 1.000
16.460 88.000 1.000
16.480 85.000 1.000
16.500 85.000 1.000
16.520 97.000 1.000
16.540 94.000 1.000
16.560 97.000 1.000
16.580 95.000 1.000
16.600 93.000 1.000
16.620 106.000 1.000
16.640 95.000 1.000
16.660 103.000 1.000
16.680 97.000 1.000
16.700 91.000 1.000
16.720 91.000 1.000
16.740 91.000 1.000
16.760 82.000 1.000
16.780 86.000 1.000
16.800 94.000 1.000
16.820 101.000 1.000
16.840 106.000 1.000
16.860 101.000 1.000
16.880 87.000 1.000
16.900 90.000 1.000
16.920 97.000 1.000
16.940 98.000 1.000
16.960 90.000 1.000
16.980 95.000 1.000
17.000 101.000 1.000
17.020 100.000 1.000
17.040 96.000 1.000
17.060 97.000 1.000
17.080 99.000 1.000
17.100 92.000 1.000
17.120 90.000 1.000
17.140 92.000 1.000
17.160 101.000 1.000
17.180 100.000 1.000
17.200 81.000 1.000
17.220 83.000 1.000
17.240 92.000 1.000
17.260 90.000 1.000
17.280 100.000 1.000
17.300 105.000 1.000
17.320 97.000 1.000
17.340 82.000 1.000
17.360 93.000 1.000
17.380 91.000 1.000
17.400 87.000 1.000
17.420 94.000 1.000
17.440 103.000 1.000
17.460 87.000 1.000
17.480 97.000 1.000
17.500 111.000 1.000
17.520 107.000 1.000
17.540 110.000 1.000
17.560 113.000 1.000
17.580 98.000 1.000
17.600 108.000 1.000
17.620 101.000 1.000
17.640 102.000 1.000
17.660 100.000 1.000
17.680 96.000 1.000
17.700 93.000 1.000
17.720 91.000 1.000
17.740 89.000 1.000
17.760 97.000 1.000
17.780 99.000 1.000
17.800 91.000 1.000
17.820 110.000 1.000
17.840 107.000 1.000
17.860 113.000 1.000
17.880 103.000 1.000
17.900 89.000 1.000
17.920 88.000 1.000
17.940 87.000 1.000
17.960 92.000 1.000
17.980 91.000 1.000
18.000 90.000 1.000
18.020 95.000 1.000
18.040 90.000 1.000
18.060 93.000 1.000
18.080 91.000 1.000
18.100 105.000 1.000
18.120 104.000 1.000
18.140 96.000 1.000
18.160 89.000 1.000
18.180 88.000 1.000
18.200 94.000 1.000
18.220 94.000 1.000
18.240 92.000 1.000
18.260 107.000 1.000
18.280 87.000 1.000
18.300 91.000 1.000
18.320 89.000 1.000
18.340 92.000 1.000
18.360 102.000 1.000
18.380 101.000 1.000
18.400 106.000 1.000
18.420 103.000 1.000
18.440 91.000 1.000
18.460 100.000 1.000
18.480 99.000 1.000
18.500 109.000 1.000
18.520 109.000 1.000
18.540 114.000 1.000
18.560 112.000 1.000
18.580 102.000 1.000
18.600 93.000 1.000
18.620 90.000 1.000
18.640 101.000 1.000
18.660 91.000 1.000
18.680 85.000 1.000
18.700 86.000 1.000
18.720 91.000 1.000
18.740 99.000 1.000
18.760 106.000 1.000
18.780 116.000 1.000
18.800 97.000 1.000
18.820 98.000 1.000
18.840 104.000 1.000
18.860 104.000 1.000
18.880 105.000 1.000
18.900 88.000 1.000
18.920 97.000 1.000
18.940 107.000 1.000
18.960 88.000 1.000
18.980 98.000 1.000
19.000 106.000 1.000
19.020 116.000 1.000
19.040 117.000 1.000
19.060 107.000 1.000
19.080 107.000 1.000
19.100 103.000 1.000
19.120 100.000 1.000
19.140 91.000 1.000
19.160 111.000 1.000
19.180 111.000 1.000
19.200 93.000 1.000
19.220 97.000 1.000
19.240 109.000 1.000
19.260 119.000 1.000
19.280 107.000 1.000
19.300 112.000 1.000
19.320 106.000 1.000
19.340 106.000 1.000
19.360 102.000 1.000
19.380 107.000 1.000
19.400 103.000 1.000
19.420 92.000 1.000
19.440 93.000 1.000
19.460 105.000 1.000
19.480 104.000 1.000
19.500 97.000 1.000
19.520 101.000 1.000
19.540 109.000 1.000
19.560 110.000 1.000
19.580 90.000 1.000
19.600 101.000 1.000
19.620 107.000 1.000
19.640 104.000 1.000
19.660 106.000 1.000
19.680 108.000 1.000
19.700 104.000 1.000
19.720 105.000 1.000
19.740 103.000 1.000
19.760 113.000 1.000
19.780 108.000 1.000
19.800 113.000 1.000
19.820 113.000 1.000
19.840 117.000 1.000
19.860 120.000 1.000
19.880 107.000 1.000
19.900 114.000 1.000
19.920 112.000 1.000
19.940 105.000 1.000
19.960 115.000 1.000
19.980 109.000 1.000
20.000 113.000 1.000
20.020 100.000 1.000
20.040 103.000 1.000
20.060 94.000 1.000
20.080 88.000 1.000
20.100 94.000 1.000
20.120 93.000 1.000
20.140 98.000 1.000
20.160 108.000 1.000
20.180 111.000 1.000
20.200 98.000 1.000
20.220 92.000 1.000
