*RAS_DATA_START
*RAS_HEADER_START
*CORR_POS_DB_NAME "DTEX_11112016"
*CORR_POS_GONIO_RADIUS ""
*CORR_POS_NODE_INDEX01 ""
*CORR_POS_NODE_INDEX02 ""
*CORR_POS_NODE_INDEX03 ""
*CORR_POS_NODE_INDEX04 ""
*CORR_POS_NODE_INDEX05 ""
*CORR_POS_NODE_INDEX06 ""
*CORR_POS_NODE_INDEX07 ""
*CORR_POS_NODE_INDEX08 ""
*CORR_POS_NODE_INDEX09 ""
*CORR_POS_NODE_INDEX10 ""
*CORR_POS_NODE_INDEX11 ""
*CORR_POS_NODE_LABEL01 "Si(111)"
*CORR_POS_NODE_LABEL02 "Si(220)"
*CORR_POS_NODE_LABEL03 "Si(311)"
*CORR_POS_NODE_LABEL04 "Si(400)"
*CORR_POS_NODE_LABEL05 "Si(331)"
*CORR_POS_NODE_LABEL06 "Si(422)"
*CORR_POS_NODE_LABEL07 "Si(511)"
*CORR_POS_NODE_LABEL08 "Si(440)"
*CORR_POS_NODE_LABEL09 "Si(531)"
*CORR_POS_NODE_LABEL10 "Si(620)"
*CORR_POS_NODE_LABEL11 "Si(533)"
*CORR_POS_NODE_POS_CALC01 "28.4137"
*CORR_POS_NODE_POS_CALC02 "47.2707"
*CORR_POS_NODE_POS_CALC03 "56.0883"
*CORR_POS_NODE_POS_CALC04 "69.0934"
*CORR_POS_NODE_POS_CALC05 "76.3385"
*CORR_POS_NODE_POS_CALC06 "87.9915"
*CORR_POS_NODE_POS_CALC07 "94.9137"
*CORR_POS_NODE_POS_CALC08 "106.67"
*CORR_POS_NODE_POS_CALC09 "114.054"
*CORR_POS_NODE_POS_CALC10 "127.508"
*CORR_POS_NODE_POS_CALC11 "136.858"
*CORR_POS_NODE_POS_MEAS01 "28.3712"
*CORR_POS_NODE_POS_MEAS02 "47.2304"
*CORR_POS_NODE_POS_MEAS03 "56.0465"
*CORR_POS_NODE_POS_MEAS04 "69.0523"
*CORR_POS_NODE_POS_MEAS05 "76.2993"
*CORR_POS_NODE_POS_MEAS06 "87.9512"
*CORR_POS_NODE_POS_MEAS07 "94.8772"
*CORR_POS_NODE_POS_MEAS08 "106.636"
*CORR_POS_NODE_POS_MEAS09 "114.028"
*CORR_POS_NODE_POS_MEAS10 "127.48"
*CORR_POS_NODE_POS_MEAS11 "136.839"
*CORR_POS_OPT_ATTR "集中法"
*CORR_POS_PARAM_MU ""
*CORR_POS_PARAM_PL ""
*CORR_POS_SEMODEL_TYPE "0"
*CORR_POS_STANDARD_TYPE ""
*CORR_POS_VALUE_ANALYZER "None"
*CORR_POS_VALUE_CMONO "None"
*CORR_POS_VALUE_IMONO "None"
*CORR_POS_VALUE_IS "0.625deg"
*CORR_POS_VALUE_ISL "10.0mm"
*CORR_POS_VALUE_ISOLLER "2.5deg"
*CORR_POS_VALUE_RS1 "13.0mm"
*CORR_POS_VALUE_RS2 "13.0mm"
*CORR_POS_VALUE_RSOLLER "2.5deg"
*CORR_POS_XG_FOCUS_L ""
*CORR_POS_XG_WAVE_TYPE ""
*CORR_POS_XG_WAVE_VALUE ""
*DISP_FMT_X "%.2f"
*DISP_FMT_Y "%.0f"
*DISP_FULLSCALE "10119.6000000000"
*DISP_LINE_COLOR "255.0000000000"
*DISP_LINE_STYLE "0.0000000000"
*DISP_LINE_WIDTH "0.2500000000"
*DISP_NOTE "Collected Data-2"
*DISP_OFFSET_Y "0.0000000000"
*DISP_PEAKSEARCH_UNIT_Y "COUNTS"
*DISP_RANGE_BOTTOM "0.0000000000"
*DISP_RANGE_LEFT "10.0000000000"
*DISP_RANGE_LOGCUTOFF "0.0100000000"
*DISP_RANGE_RIGHT "90.0000000000"
*DISP_RANGE_TOP "10119.6000000000"
*DISP_SCALE_MODE_Y "0.0000000000"
*DISP_TAB_NAME "Theta/2-Theta"
*DISP_TITLE_Y "Intensity"
*DISP_UNIT_Y "COUNTS"
*DISP_WINDOW_NAME "MSG_MACROENGINE"
*FILE_COMMENT " "
*FILE_MD5 ""
*FILE_MEMO "45C"
*FILE_OPERATOR "MiniFlex"
*FILE_PART_ID "MEAS_PBEA_00223"
*FILE_SAMPLE "007"
*FILE_TYPE "RAS_RAW"
*FILE_USERGROUP "System User"
*FILE_VERSION "1.0000000000"
*HW_ATTACHMENT_ID "ATT1031"
*HW_ATTACHMENT_NAME "6サンプルチェンジャ|ASC-6"
*HW_COUNTER_ID-0 "CUT0025"
*HW_COUNTER_ID-1 "CUT0020"
*HW_COUNTER_ID-2 "CUT0020"
*HW_COUNTER_ID-3 "CMC0021"
*HW_COUNTER_NAME-0 "D/teX Ultra|D/teX Ultra"
*HW_COUNTER_NAME-1 "None|None"
*HW_COUNTER_NAME-2 "None|None"
*HW_COUNTER_NAME-3 "検出器モノクロメータ|Detector monochromator"
*HW_COUNTER_SELECT_NAME "D/teX Ultra|D/teX Ultra"
*HW_GONIOMETER_ID "GON0070"
*HW_GONIOMETER_NAME "MiniFlex 300/600|MiniFlex 300/600"
*HW_GONIOMETER_RADIUS-0 "79.0"
*HW_GONIOMETER_RADIUS-1 "91.5"
*HW_GONIOMETER_RADIUS-2 "150.0"
*HW_GONIOMETER_RADIUS-3 "0"
*HW_GONIOMETER_RADIUS-4 "103.4"
*HW_GONIOMETER_RADIUS-5 "150.0"
*HW_GONIOMETER_RADIUS-6 "46.6"
*HW_GONIOMETER_RADIUS-7 "160.0"
*HW_I_OPT_ID-0 "ISL0021"
*HW_I_OPT_ID-1 "ISO0021"
*HW_I_OPT_NAME-0 "発散スリット|Divergence slit"
*HW_I_OPT_NAME-1 "入射平行スリット|Incident parallel slit"
*HW_R_ATTENUATER_AUTOMODE "0"
*HW_R_OPT_ID-0 "RSS0021"
*HW_R_OPT_ID-1 "RSO0021"
*HW_R_OPT_ID-2 "RRS0021"
*HW_R_OPT_NAME-0 "散乱スリット|Scattering slit"
*HW_R_OPT_NAME-1 "受光平行スリット|Receiving soller slit"
*HW_R_OPT_NAME-2 "受光スリット|Receiving slit"
*HW_SAMPLE_HOLDER_ID "SMP0000"
*HW_SAMPLE_HOLDER_NAME "無し|None"
*HW_XG_CURRENT_MAX "15"
*HW_XG_CURRENT_MIN "2"
*HW_XG_CURRENT_RESOLUTION "1"
*HW_XG_CURRENT_UNIT "mA"
*HW_XG_FOCUS "1mm x 10mm"
*HW_XG_FOCUS_TYPE "Normal"
*HW_XG_ID "1060"
*HW_XG_NAME "300W/600W 封入管-B|300W/600W Sealed tube-B"
*HW_XG_TARGET_ATOMIC_NUMBER "29.0000000000"
*HW_XG_TARGET_NAME "Cu"
*HW_XG_TYPE "Hermetic"
*HW_XG_VOLTAGE_MAX "40"
*HW_XG_VOLTAGE_MIN "20"
*HW_XG_VOLTAGE_RESOLUTION "1"
*HW_XG_VOLTAGE_UNIT "kV"
*HW_XG_WATT_MAX "1"
*HW_XG_WATT_UNIT "kW"
*HW_XG_WAVE_LENGTH_ALPHA1 "1.540593"
*HW_XG_WAVE_LENGTH_ALPHA2 "1.544414"
*HW_XG_WAVE_LENGTH_BETA "1.392250"
*MEAS_COND_AXIS_NAME-0 "Theta/2-Theta"
*MEAS_COND_AXIS_NAME-1 "Spin"
*MEAS_COND_AXIS_NAME-2 "Change"
*MEAS_COND_AXIS_NAME-3 "Soller(inc.)"
*MEAS_COND_AXIS_NAME-4 "IHS"
*MEAS_COND_AXIS_NAME-5 "DS"
*MEAS_COND_AXIS_NAME-6 "SS"
*MEAS_COND_AXIS_NAME-7 "Soller(rec.)"
*MEAS_COND_AXIS_NAME-8 "RS"
*MEAS_COND_AXIS_NAME-9 "Filter"
*MEAS_COND_AXIS_NAME-10 "Monochromator"
*MEAS_COND_AXIS_NAME-11 "PHA"
*MEAS_COND_AXIS_NAME_INTERNAL-0 "TwoThetaTheta"
*MEAS_COND_AXIS_NAME_INTERNAL-1 "Spin"
*MEAS_COND_AXIS_NAME_INTERNAL-2 "Change"
*MEAS_COND_AXIS_NAME_INTERNAL-3 "IncidentSollerSlit"
*MEAS_COND_AXIS_NAME_INTERNAL-4 "IncidentAxdSlit"
*MEAS_COND_AXIS_NAME_INTERNAL-5 "IncidentSlitBox"
*MEAS_COND_AXIS_NAME_INTERNAL-6 "ReceivingSlitBox1"
*MEAS_COND_AXIS_NAME_INTERNAL-7 "ReceivingSollerSlit"
*MEAS_COND_AXIS_NAME_INTERNAL-8 "ReceivingSlitBox2"
*MEAS_COND_AXIS_NAME_INTERNAL-9 "Filter"
*MEAS_COND_AXIS_NAME_INTERNAL-10 "CounterMonochromator"
*MEAS_COND_AXIS_NAME_INTERNAL-11 "PHA"
*MEAS_COND_AXIS_NAME_MAGICNO-0 "268632064.0000000000"
*MEAS_COND_AXIS_NAME_MAGICNO-1 "16842752.0000000000"
*MEAS_COND_AXIS_NAME_MAGICNO-2 "16842752.0000000000"
*MEAS_COND_AXIS_NAME_MAGICNO-3 "20971521.0000000000"
*MEAS_COND_AXIS_NAME_MAGICNO-4 "22020097.0000000000"
*MEAS_COND_AXIS_NAME_MAGICNO-5 "22020097.0000000000"
*MEAS_COND_AXIS_NAME_MAGICNO-6 "23068673.0000000000"
*MEAS_COND_AXIS_NAME_MAGICNO-7 "20971521.0000000000"
*MEAS_COND_AXIS_NAME_MAGICNO-8 "23068673.0000000000"
*MEAS_COND_AXIS_NAME_MAGICNO-9 "20971521.0000000000"
*MEAS_COND_AXIS_NAME_MAGICNO-10 "20971521.0000000000"
*MEAS_COND_AXIS_NAME_MAGICNO-11 "0.0000000000"
*MEAS_COND_AXIS_OFFSET-0 "0.0000000000"
*MEAS_COND_AXIS_OFFSET-1 "-"
*MEAS_COND_AXIS_OFFSET-2 "-"
*MEAS_COND_AXIS_OFFSET-3 "-"
*MEAS_COND_AXIS_OFFSET-4 "-"
*MEAS_COND_AXIS_OFFSET-5 "-"
*MEAS_COND_AXIS_OFFSET-6 "-"
*MEAS_COND_AXIS_OFFSET-7 "-"
*MEAS_COND_AXIS_OFFSET-8 "-"
*MEAS_COND_AXIS_OFFSET-9 "-"
*MEAS_COND_AXIS_OFFSET-10 "-"
*MEAS_COND_AXIS_OFFSET-11 "-"
*MEAS_COND_AXIS_POSITION-0 "92.5150000000"
*MEAS_COND_AXIS_POSITION-1 "0.0000000000"
*MEAS_COND_AXIS_POSITION-2 "2.0000000000"
*MEAS_COND_AXIS_POSITION-3 "2.5deg"
*MEAS_COND_AXIS_POSITION-4 "10.0mm"
*MEAS_COND_AXIS_POSITION-5 "0.625deg"
*MEAS_COND_AXIS_POSITION-6 "13.0mm(Open)"
*MEAS_COND_AXIS_POSITION-7 "2.5deg"
*MEAS_COND_AXIS_POSITION-8 "13.0mm"
*MEAS_COND_AXIS_POSITION-9 "K-beta(x2)"
*MEAS_COND_AXIS_POSITION-10 "None"
*MEAS_COND_AXIS_POSITION-11 "41.0000000000"
*MEAS_COND_AXIS_UNIT-0 "deg"
*MEAS_COND_AXIS_UNIT-1 ""
*MEAS_COND_AXIS_UNIT-2 ""
*MEAS_COND_AXIS_UNIT-3 ""
*MEAS_COND_AXIS_UNIT-4 ""
*MEAS_COND_AXIS_UNIT-5 ""
*MEAS_COND_AXIS_UNIT-6 ""
*MEAS_COND_AXIS_UNIT-7 ""
*MEAS_COND_AXIS_UNIT-8 ""
*MEAS_COND_AXIS_UNIT-9 ""
*MEAS_COND_AXIS_UNIT-10 ""
*MEAS_COND_AXIS_UNIT-11 "div"
*MEAS_COND_CORRECTION_SLIT_COUNTERMONO "None"
*MEAS_COND_CORRECTION_SLIT_DS "0.625deg"
*MEAS_COND_CORRECTION_SLIT_FILTER "None"
*MEAS_COND_CORRECTION_SLIT_IHS "10.0mm"
*MEAS_COND_CORRECTION_SLIT_RS "13.0mm"
*MEAS_COND_CORRECTION_SLIT_SOLLER_INC "2.5deg"
*MEAS_COND_CORRECTION_SLIT_SOLLER_REC "2.5deg"
*MEAS_COND_CORRECTION_SLIT_SS "13.0mm"
*MEAS_COND_COUNTER_CNTLOSS_CORR "0.0000000000"
*MEAS_COND_COUNTER_PHABASE "41.0000000000"
*MEAS_COND_COUNTER_PHAWINDOW "14.0000000000"
*MEAS_COND_COUNTER_PHA_UNIT "div"
*MEAS_COND_COUNTER_TAUDIFF "0.2500000000"
*MEAS_COND_COUNTER_TAUINT "0.7500000000"
*MEAS_COND_IRRADIATION_MODE "OFF"
*MEAS_COND_IRRADIATION_WIDTH ""
*MEAS_COND_OPT_ATTR " "
*MEAS_COND_OPT_NAME ""
*MEAS_COND_UNSYMMETRIC_MODE "OFF"
*MEAS_COND_XG_CURRENT "15.0000000000"
*MEAS_COND_XG_VOLTAGE "40.0000000000"
*MEAS_COND_XG_WAVE_TYPE "Ka"
*MEAS_DATA_COUNT "4001.0000000000"
*MEAS_SCAN_AXIS_X "Theta/2-Theta"
*MEAS_SCAN_AXIS_X_INTERNAL "TwoThetaTheta"
*MEAS_SCAN_END_TIME "03/14/17 10:54:22"
*MEAS_SCAN_MODE "CONTINUOUS"
*MEAS_SCAN_MONITOR "0"
*MEAS_SCAN_RESOLUTION_X "0.005"
*MEAS_SCAN_SPEED "10.000"
*MEAS_SCAN_SPEED_UNIT "deg/min"
*MEAS_SCAN_SPEED_USER "10.000"
*MEAS_SCAN_START "10.0000000000"
*MEAS_SCAN_START_TIME "03/14/17 10:45:26"
*MEAS_SCAN_STEP "0.0200000000"
*MEAS_SCAN_STOP "90.0000000000"
*MEAS_SCAN_UNIT_X "deg"
*MEAS_SCAN_UNIT_Y "counts"
*SLIT_SYSTEM "0"
*RAS_HEADER_END
*RAS_INT_START
10.000 179.000 1.000
10.020 179.000 1.000
10.040 179.000 1.000
10.060 187.000 1.000
10.080 214.000 1.000
10.100 198.000 1.000
10.120 194.000 1.000
10.140 199.000 1.000
10.160 188.000 1.000
10.180 191.000 1.000
10.200 207.000 1.000
10.220 209.000 1.000
10.240 195.000 1.000
10.260 198.000 1.000
10.280 214.000 1.000
10.300 210.000 1.000
10.320 214.000 1.000
10.340 211.000 1.000
10.360 206.000 1.000
10.380 194.000 1.000
10.400 202.000 1.000
10.420 181.000 1.000
10.440 203.000 1.000
10.460 201.000 1.000
10.480 205.000 1.000
10.500 196.000 1.000
10.520 190.000 1.000
10.540 219.000 1.000
10.560 206.000 1.000
10.580 214.000 1.000
10.600 216.000 1.000
10.620 210.000 1.000
10.640 207.000 1.000
10.660 210.000 1.000
10.680 206.000 1.000
10.700 208.000 1.000
10.720 198.000 1.000
10.740 198.000 1.000
10.760 209.000 1.000
10.780 210.000 1.000
10.800 221.000 1.000
10.820 211.000 1.000
10.840 220.000 1.000
10.860 210.000 1.000
10.880 214.000 1.000
10.900 210.000 1.000
10.920 218.000 1.000
10.940 215.000 1.000
10.960 219.000 1.000
10.980 211.000 1.000
11.000 194.000 1.000
11.020 193.000 1.000
11.040 199.000 1.000
11.060 197.000 1.000
11.080 192.000 1.000
11.100 208.000 1.000
11.120 226.000 1.000
11.140 209.000 1.000
11.160 210.000 1.000
11.180 219.000 1.000
11.200 223.000 1.000
11.220 217.000 1.000
11.240 215.000 1.000
11.260 206.000 1.000
11.280 227.000 1.000
11.300 229.000 1.000
11.320 218.000 1.000
11.340 227.000 1.000
11.360 224.000 1.000
11.380 215.000 1.000
11.400 211.000 1.000
11.420 226.000 1.000
11.440 223.000 1.000
11.460 223.000 1.000
11.480 225.000 1.000
11.500 205.000 1.000
11.520 204.000 1.000
11.540 207.000 1.000
11.560 219.000 1.000
11.580 218.000 1.000
11.600 207.000 1.000
11.620 214.000 1.000
11.640 208.000 1.000
11.660 206.000 1.000
11.680 225.000 1.000
11.700 242.000 1.000
11.720 211.000 1.000
11.740 194.000 1.000
11.760 216.000 1.000
11.780 213.000 1.000
11.800 211.000 1.000
11.820 217.000 1.000
11.840 226.000 1.000
11.860 220.000 1.000
11.880 221.000 1.000
11.900 225.000 1.000
11.920 209.000 1.000
11.940 205.000 1.000
11.960 199.000 1.000
11.980 211.000 1.000
12.000 193.000 1.000
12.020 209.000 1.000
12.040 205.000 1.000
12.060 212.000 1.000
12.080 196.000 1.000
12.100 216.000 1.000
12.120 214.000 1.000
12.140 213.000 1.000
12.160 211.000 1.000
12.180 224.000 1.000
12.200 211.000 1.000
12.220 199.000 1.000
12.240 205.000 1.000
12.260 234.000 1.000
12.280 225.000 1.000
12.300 208.000 1.000
12.320 209.000 1.000
12.340 206.000 1.000
12.360 218.000 1.000
12.380 216.000 1.000
12.400 210.000 1.000
12.420 223.000 1.000
12.440 209.000 1.000
12.460 212.000 1.000
12.480 210.000 1.000
12.500 204.000 1.000
12.520 216.000 1.000
12.540 216.000 1.000
12.560 210.000 1.000
12.580 201.000 1.000
12.600 199.000 1.000
12.620 222.000 1.000
12.640 214.000 1.000
12.660 209.000 1.000
12.680 231.000 1.000
12.700 212.000 1.000
12.720 211.000 1.000
12.740 217.000 1.000
12.760 224.000 1.000
12.780 232.000 1.000
12.800 231.000 1.000
12.820 231.000 1.000
12.840 215.000 1.000
12.860 193.000 1.000
12.880 206.000 1.000
12.900 215.000 1.000
12.920 203.000 1.000
12.940 199.000 1.000
12.960 221.000 1.000
12.980 213.000 1.000
13.000 213.000 1.000
13.020 230.000 1.000
13.040 209.000 1.000
13.060 206.000 1.000
13.080 208.000 1.000
13.100 233.000 1.000
13.120 239.000 1.000
13.140 226.000 1.000
13.160 209.000 1.000
13.180 221.000 1.000
13.200 228.000 1.000
13.220 218.000 1.000
13.240 239.000 1.000
13.260 226.000 1.000
13.280 245.000 1.000
13.300 205.000 1.000
13.320 211.000 1.000
13.340 225.000 1.000
13.360 225.000 1.000
13.380 222.000 1.000
13.400 225.000 1.000
13.420 209.000 1.000
13.440 205.000 1.000
13.460 229.000 1.000
13.480 219.000 1.000
13.500 235.000 1.000
13.520 225.000 1.000
13.540 221.000 1.000
13.560 214.000 1.000
13.580 231.000 1.000
13.600 207.000 1.000
13.620 199.000 1.000
13.640 213.000 1.000
13.660 205.000 1.000
13.680 203.000 1.000
13.700 223.000 1.000
13.720 244.000 1.000
13.740 229.000 1.000
13.760 229.000 1.000
13.780 225.000 1.000
13.800 233.000 1.000
13.820 219.000 1.000
13.840 207.000 1.000
13.860 216.000 1.000
13.880 224.000 1.000
13.900 230.000 1.000
13.920 213.000 1.000
13.940 214.000 1.000
13.960 219.000 1.000
13.980 221.000 1.000
14.000 224.000 1.000
14.020 224.000 1.000
14.040 231.000 1.000
14.060 206.000 1.000
14.080 220.000 1.000
14.100 219.000 1.000
14.120 222.000 1.000
14.140 228.000 1.000
14.160 231.000 1.000
14.180 241.000 1.000
14.200 211.000 1.000
14.220 216.000 1.000
14.240 219.000 1.000
14.260 216.000 1.000
14.280 208.000 1.000
14.300 231.000 1.000
14.320 228.000 1.000
14.340 223.000 1.000
14.360 217.000 1.000
14.380 230.000 1.000
14.400 213.000 1.000
14.420 214.000 1.000
14.440 224.000 1.000
14.460 231.000 1.000
14.480 224.000 1.000
14.500 223.000 1.000
14.520 213.000 1.000
14.540 217.000 1.000
14.560 214.000 1.000
14.580 231.000 1.000
14.600 234.000 1.000
14.620 206.000 1.000
14.640 195.000 1.000
14.660 216.000 1.000
14.680 220.000 1.000
14.700 203.000 1.000
14.720 210.000 1.000
14.740 208.000 1.000
14.760 222.000 1.000
14.780 226.000 1.000
14.800 209.000 1.000
14.820 210.000 1.000
14.840 214.000 1.000
14.860 213.000 1.000
14.880 223.000 1.000
14.900 219.000 1.000
14.920 202.000 1.000
14.940 185.000 1.000
14.960 192.000 1.000
14.980 189.000 1.000
15.000 205.000 1.000
15.020 224.000 1.000
15.040 220.000 1.000
15.060 234.000 1.000
15.080 219.000 1.000
15.100 202.000 1.000
15.120 191.000 1.000
15.140 197.000 1.000
15.160 220.000 1.000
15.180 219.000 1.000
15.200 215.000 1.000
15.220 229.000 1.000
15.240 228.000 1.000
15.260 232.000 1.000
15.280 238.000 1.000
15.300 218.000 1.000
15.320 211.000 1.000
15.340 210.000 1.000
15.360 207.000 1.000
15.380 233.000 1.000
15.400 239.000 1.000
15.420 216.000 1.000
15.440 214.000 1.000
15.460 214.000 1.000
15.480 215.000 1.000
15.500 222.000 1.000
15.520 236.000 1.000
15.540 211.000 1.000
15.560 211.000 1.000
15.580 223.000 1.000
15.600 234.000 1.000
15.620 216.000 1.000
15.640 209.000 1.000
15.660 224.000 1.000
15.680 237.000 1.000
15.700 227.000 1.000
15.720 222.000 1.000
15.740 232.000 1.000
15.760 231.000 1.000
15.780 236.000 1.000
15.800 233.000 1.000
15.820 208.000 1.000
15.840 203.000 1.000
15.860 219.000 1.000
15.880 233.000 1.000
15.900 242.000 1.000
15.920 227.000 1.000
15.940 233.000 1.000
15.960 229.000 1.000
15.980 209.000 1.000
16.000 207.000 1.000
16.020 216.000 1.000
16.040 228.000 1.000
16.060 220.000 1.000
16.080 206.000 1.000
16.100 206.000 1.000
16.120 217.000 1.000
16.140 213.000 1.000
16.160 215.000 1.000
16.180 216.000 1.000
16.200 212.000 1.000
16.220 220.000 1.000
16.240 221.000 1.000
16.260 203.000 1.000
16.280 199.000 1.000
16.300 207.000 1.000
16.320 208.000 1.000
16.340 222.000 1.000
16.360 223.000 1.000
16.380 224.000 1.000
16.400 217.000 1.000
16.420 236.000 1.000
16.440 227.000 1.000
16.460 217.000 1.000
16.480 224.000 1.000
16.500 239.000 1.000
16.520 233.000 1.000
16.540 224.000 1.000
16.560 221.000 1.000
16.580 215.000 1.000
16.600 204.000 1.000
16.620 223.000 1.000
16.640 219.000 1.000
16.660 241.000 1.000
16.680 239.000 1.000
16.700 233.000 1.000
16.720 230.000 1.000
16.740 209.000 1.000
16.760 206.000 1.000
16.780 225.000 1.000
16.800 221.000 1.000
16.820 224.000 1.000
16.840 224.000 1.000
16.860 222.000 1.000
16.880 223.000 1.000
16.900 223.000 1.000
16.920 217.000 1.000
16.940 222.000 1.000
16.960 226.000 1.000
16.980 227.000 1.000
17.000 226.000 1.000
17.020 234.000 1.000
17.040 239.000 1.000
17.060 226.000 1.000
17.080 211.000 1.000
17.100 210.000 1.000
17.120 235.000 1.000
17.140 248.000 1.000
17.160 223.000 1.000
17.180 218.000 1.000
17.200 244.000 1.000
17.220 226.000 1.000
17.240 216.000 1.000
17.260 249.000 1.000
17.280 238.000 1.000
17.300 227.000 1.000
17.320 202.000 1.000
17.340 231.000 1.000
17.360 238.000 1.000
17.380 218.000 1.000
17.400 214.000 1.000
17.420 221.000 1.000
17.440 203.000 1.000
17.460 209.000 1.000
17.480 220.000 1.000
17.500 229.000 1.000
17.520 248.000 1.000
17.540 245.000 1.000
17.560 234.000 1.000
17.580 224.000 1.000
17.600 216.000 1.000
17.620 217.000 1.000
17.640 231.000 1.000
17.660 236.000 1.000
17.680 220.000 1.000
17.700 230.000 1.000
17.720 225.000 1.000
17.740 218.000 1.000
17.760 226.000 1.000
17.780 227.000 1.000
17.800 220.000 1.000
17.820 217.000 1.000
17.840 224.000 1.000
17.860 226.000 1.000
17.880 214.000 1.000
17.900 214.000 1.000
17.920 229.000 1.000
17.940 226.000 1.000
17.960 212.000 1.000
17.980 210.000 1.000
18.000 217.000 1.000
18.020 216.000 1.000
18.040 226.000 1.000
18.060 224.000 1.000
18.080 232.000 1.000
18.100 220.000 1.000
18.120 223.000 1.000
18.140 218.000 1.000
18.160 227.000 1.000
18.180 212.000 1.000
18.200 208.000 1.000
18.220 214.000 1.000
18.240 225.000 1.000
18.260 225.000 1.000
18.280 212.000 1.000
18.300 224.000 1.000
18.320 227.000 1.000
18.340 218.000 1.000
18.360 234.000 1.000
18.380 235.000 1.000
18.400 222.000 1.000
18.420 216.000 1.000
18.440 224.000 1.000
18.460 233.000 1.000
18.480 226.000 1.000
18.500 219.000 1.000
18.520 206.000 1.000
18.540 210.000 1.000
18.560 222.000 1.000
18.580 235.000 1.000
18.600 227.000 1.000
18.620 223.000 1.000
18.640 253.000 1.000
18.660 231.000 1.000
18.680 226.000 1.000
18.700 231.000 1.000
18.720 232.000 1.000
18.740 223.000 1.000
18.760 220.000 1.000
18.780 211.000 1.000
18.800 209.000 1.000
18.820 236.000 1.000
18.840 257.000 1.000
18.860 240.000 1.000
18.880 243.000 1.000
18.900 218.000 1.000
18.920 220.000 1.000
18.940 229.000 1.000
18.960 212.000 1.000
18.980 227.000 1.000
19.000 248.000 1.000
19.020 225.000 1.000
19.040 254.000 1.000
19.060 243.000 1.000
19.080 228.000 1.000
19.100 236.000 1.000
19.120 264.000 1.000
19.140 223.000 1.000
19.160 231.000 1.000
19.180 249.000 1.000
19.200 222.000 1.000
19.220 230.000 1.000
19.240 232.000 1.000
19.260 216.000 1.000
19.280 213.000 1.000
19.300 225.000 1.000
19.320 216.000 1.000
19.340 232.000 1.000
19.360 246.000 1.000
19.380 230.000 1.000
19.400 209.000 1.000
19.420 209.000 1.000
19.440 237.000 1.000
19.460 245.000 1.000
19.480 248.000 1.000
19.500 233.000 1.000
19.520 227.000 1.000
19.540 255.000 1.000
19.560 243.000 1.000
19.580 233.000 1.000
19.600 234.000 1.000
19.620 237.000 1.000
19.640 252.000 1.000
19.660 236.000 1.000
19.680 233.000 1.000
19.700 239.000 1.000
19.720 238.000 1.000
19.740 244.000 1.000
19.760 233.000 1.000
19.780 241.000 1.000
19.800 254.000 1.000
19.820 239.000 1.000
19.840 231.000 1.000
19.860 245.000 1.000
19.880 224.000 1.000
19.900 241.000 1.000
19.920 264.000 1.000
19.940 241.000 1.000
19.960 242.000 1.000
19.980 234.000 1.000
20.000 245.000 1.000
20.020 247.000 1.000
