*RAS_DATA_START
*RAS_HEADER_START
*CORR_POS_DB_NAME "DTEX_11112016"
*CORR_POS_GONIO_RADIUS ""
*CORR_POS_NODE_INDEX01 ""
*CORR_POS_NODE_INDEX02 ""
*CORR_POS_NODE_INDEX03 ""
*CORR_POS_NODE_INDEX04 ""
*CORR_POS_NODE_INDEX05 ""
*CORR_POS_NODE_INDEX06 ""
*CORR_POS_NODE_INDEX07 ""
*CORR_POS_NODE_INDEX08 ""
*CORR_POS_NODE_INDEX09 ""
*CORR_POS_NODE_INDEX10 ""
*CORR_POS_NODE_INDEX11 ""
*CORR_POS_NODE_LABEL01 "Si(111)"
*CORR_POS_NODE_LABEL02 "Si(220)"
*CORR_POS_NODE_LABEL03 "Si(311)"
*CORR_POS_NODE_LABEL04 "Si(400)"
*CORR_POS_NODE_LABEL05 "Si(331)"
*CORR_POS_NODE_LABEL06 "Si(422)"
*CORR_POS_NODE_LABEL07 "Si(511)"
*CORR_POS_NODE_LABEL08 "Si(440)"
*CORR_POS_NODE_LABEL09 "Si(531)"
*CORR_POS_NODE_LABEL10 "Si(620)"
*CORR_POS_NODE_LABEL11 "Si(533)"
*CORR_POS_NODE_POS_CALC01 "28.4137"
*CORR_POS_NODE_POS_CALC02 "47.2707"
*CORR_POS_NODE_POS_CALC03 "56.0883"
*CORR_POS_NODE_POS_CALC04 "69.0934"
*CORR_POS_NODE_POS_CALC05 "76.3385"
*CORR_POS_NODE_POS_CALC06 "87.9915"
*CORR_POS_NODE_POS_CALC07 "94.9137"
*CORR_POS_NODE_POS_CALC08 "106.67"
*CORR_POS_NODE_POS_CALC09 "114.054"
*CORR_POS_NODE_POS_CALC10 "127.508"
*CORR_POS_NODE_POS_CALC11 "136.858"
*CORR_POS_NODE_POS_MEAS01 "28.3712"
*CORR_POS_NODE_POS_MEAS02 "47.2304"
*CORR_POS_NODE_POS_MEAS03 "56.0465"
*CORR_POS_NODE_POS_MEAS04 "69.0523"
*CORR_POS_NODE_POS_MEAS05 "76.2993"
*CORR_POS_NODE_POS_MEAS06 "87.9512"
*CORR_POS_NODE_POS_MEAS07 "94.8772"
*CORR_POS_NODE_POS_MEAS08 "106.636"
*CORR_POS_NODE_POS_MEAS09 "114.028"
*CORR_POS_NODE_POS_MEAS10 "127.48"
*CORR_POS_NODE_POS_MEAS11 "136.839"
*CORR_POS_OPT_ATTR "集中法"
*CORR_POS_PARAM_MU ""
*CORR_POS_PARAM_PL ""
*CORR_POS_SEMODEL_TYPE "0"
*CORR_POS_STANDARD_TYPE ""
*CORR_POS_VALUE_ANALYZER "None"
*CORR_POS_VALUE_CMONO "None"
*CORR_POS_VALUE_IMONO "None"
*CORR_POS_VALUE_IS "0.625deg"
*CORR_POS_VALUE_ISL "10.0mm"
*CORR_POS_VALUE_ISOLLER "2.5deg"
*CORR_POS_VALUE_RS1 "13.0mm"
*CORR_POS_VALUE_RS2 "13.0mm"
*CORR_POS_VALUE_RSOLLER "2.5deg"
*CORR_POS_XG_FOCUS_L ""
*CORR_POS_XG_WAVE_TYPE ""
*CORR_POS_XG_WAVE_VALUE ""
*DISP_FMT_X "%.2f"
*DISP_FMT_Y "%.0f"
*DISP_FULLSCALE "396.0000000000"
*DISP_LINE_COLOR "255.0000000000"
*DISP_LINE_STYLE "0.0000000000"
*DISP_LINE_WIDTH "0.2500000000"
*DISP_NOTE "Collected Data-2"
*DISP_OFFSET_Y "0.0000000000"
*DISP_PEAKSEARCH_UNIT_Y "COUNTS"
*DISP_RANGE_BOTTOM "0.0000000000"
*DISP_RANGE_LEFT "28.0000000000"
*DISP_RANGE_LOGCUTOFF "0.0100000000"
*DISP_RANGE_RIGHT "60.0000000000"
*DISP_RANGE_TOP "396.0000000000"
*DISP_SCALE_MODE_Y "0.0000000000"
*DISP_TAB_NAME "Theta/2-Theta"
*DISP_TITLE_Y "Intensity"
*DISP_UNIT_Y "COUNTS"
*DISP_WINDOW_NAME "MSG_MACROENGINE"
*FILE_COMMENT " "
*FILE_MD5 ""
*FILE_MEMO " "
*FILE_OPERATOR "MiniFlex"
*FILE_PART_ID "MEAS_PBEA_00223"
*FILE_SAMPLE "cu2o_010_28-70_2theta_speed10_step0.01"
*FILE_TYPE "RAS_RAW"
*FILE_USERGROUP "System User"
*FILE_VERSION "1.0000000000"
*HW_ATTACHMENT_ID "ATT1031"
*HW_ATTACHMENT_NAME "6サンプルチェンジャ|ASC-6"
*HW_COUNTER_ID-0 "CUT0025"
*HW_COUNTER_ID-1 "CUT0020"
*HW_COUNTER_ID-2 "CUT0020"
*HW_COUNTER_ID-3 "CMC0021"
*HW_COUNTER_NAME-0 "D/teX Ultra|D/teX Ultra"
*HW_COUNTER_NAME-1 "None|None"
*HW_COUNTER_NAME-2 "None|None"
*HW_COUNTER_NAME-3 "検出器モノクロメータ|Detector monochromator"
*HW_COUNTER_SELECT_NAME "D/teX Ultra|D/teX Ultra"
*HW_GONIOMETER_ID "GON0070"
*HW_GONIOMETER_NAME "MiniFlex 300/600|MiniFlex 300/600"
*HW_GONIOMETER_RADIUS-0 "79.0"
*HW_GONIOMETER_RADIUS-1 "91.5"
*HW_GONIOMETER_RADIUS-2 "150.0"
*HW_GONIOMETER_RADIUS-3 "0"
*HW_GONIOMETER_RADIUS-4 "103.4"
*HW_GONIOMETER_RADIUS-5 "150.0"
*HW_GONIOMETER_RADIUS-6 "46.6"
*HW_GONIOMETER_RADIUS-7 "160.0"
*HW_I_OPT_ID-0 "ISL0021"
*HW_I_OPT_ID-1 "ISO0021"
*HW_I_OPT_NAME-0 "発散スリット|Divergence slit"
*HW_I_OPT_NAME-1 "入射平行スリット|Incident parallel slit"
*HW_R_ATTENUATER_AUTOMODE "0"
*HW_R_OPT_ID-0 "RSS0021"
*HW_R_OPT_ID-1 "RSO0021"
*HW_R_OPT_ID-2 "RRS0021"
*HW_R_OPT_NAME-0 "散乱スリット|Scattering slit"
*HW_R_OPT_NAME-1 "受光平行スリット|Receiving soller slit"
*HW_R_OPT_NAME-2 "受光スリット|Receiving slit"
*HW_SAMPLE_HOLDER_ID "SMP0000"
*HW_SAMPLE_HOLDER_NAME "無し|None"
*HW_XG_CURRENT_MAX "15"
*HW_XG_CURRENT_MIN "2"
*HW_XG_CURRENT_RESOLUTION "1"
*HW_XG_CURRENT_UNIT "mA"
*HW_XG_FOCUS "1mm x 10mm"
*HW_XG_FOCUS_TYPE "Normal"
*HW_XG_ID "1060"
*HW_XG_NAME "300W/600W 封入管-B|300W/600W Sealed tube-B"
*HW_XG_TARGET_ATOMIC_NUMBER "29.0000000000"
*HW_XG_TARGET_NAME "Cu"
*HW_XG_TYPE "Hermetic"
*HW_XG_VOLTAGE_MAX "40"
*HW_XG_VOLTAGE_MIN "20"
*HW_XG_VOLTAGE_RESOLUTION "1"
*HW_XG_VOLTAGE_UNIT "kV"
*HW_XG_WATT_MAX "1"
*HW_XG_WATT_UNIT "kW"
*HW_XG_WAVE_LENGTH_ALPHA1 "1.540593"
*HW_XG_WAVE_LENGTH_ALPHA2 "1.544414"
*HW_XG_WAVE_LENGTH_BETA "1.392250"
*MEAS_COND_AXIS_NAME-0 "Theta/2-Theta"
*MEAS_COND_AXIS_NAME-1 "Spin"
*MEAS_COND_AXIS_NAME-2 "Change"
*MEAS_COND_AXIS_NAME-3 "Soller(inc.)"
*MEAS_COND_AXIS_NAME-4 "IHS"
*MEAS_COND_AXIS_NAME-5 "DS"
*MEAS_COND_AXIS_NAME-6 "SS"
*MEAS_COND_AXIS_NAME-7 "Soller(rec.)"
*MEAS_COND_AXIS_NAME-8 "RS"
*MEAS_COND_AXIS_NAME-9 "Filter"
*MEAS_COND_AXIS_NAME-10 "Monochromator"
*MEAS_COND_AXIS_NAME-11 "PHA"
*MEAS_COND_AXIS_NAME_INTERNAL-0 "TwoThetaTheta"
*MEAS_COND_AXIS_NAME_INTERNAL-1 "Spin"
*MEAS_COND_AXIS_NAME_INTERNAL-2 "Change"
*MEAS_COND_AXIS_NAME_INTERNAL-3 "IncidentSollerSlit"
*MEAS_COND_AXIS_NAME_INTERNAL-4 "IncidentAxdSlit"
*MEAS_COND_AXIS_NAME_INTERNAL-5 "IncidentSlitBox"
*MEAS_COND_AXIS_NAME_INTERNAL-6 "ReceivingSlitBox1"
*MEAS_COND_AXIS_NAME_INTERNAL-7 "ReceivingSollerSlit"
*MEAS_COND_AXIS_NAME_INTERNAL-8 "ReceivingSlitBox2"
*MEAS_COND_AXIS_NAME_INTERNAL-9 "Filter"
*MEAS_COND_AXIS_NAME_INTERNAL-10 "CounterMonochromator"
*MEAS_COND_AXIS_NAME_INTERNAL-11 "PHA"
*MEAS_COND_AXIS_NAME_MAGICNO-0 "268632064.0000000000"
*MEAS_COND_AXIS_NAME_MAGICNO-1 "16842752.0000000000"
*MEAS_COND_AXIS_NAME_MAGICNO-2 "16842752.0000000000"
*MEAS_COND_AXIS_NAME_MAGICNO-3 "20971521.0000000000"
*MEAS_COND_AXIS_NAME_MAGICNO-4 "22020097.0000000000"
*MEAS_COND_AXIS_NAME_MAGICNO-5 "22020097.0000000000"
*MEAS_COND_AXIS_NAME_MAGICNO-6 "23068673.0000000000"
*MEAS_COND_AXIS_NAME_MAGICNO-7 "20971521.0000000000"
*MEAS_COND_AXIS_NAME_MAGICNO-8 "23068673.0000000000"
*MEAS_COND_AXIS_NAME_MAGICNO-9 "20971521.0000000000"
*MEAS_COND_AXIS_NAME_MAGICNO-10 "20971521.0000000000"
*MEAS_COND_AXIS_NAME_MAGICNO-11 "0.0000000000"
*MEAS_COND_AXIS_OFFSET-0 "0.0000000000"
*MEAS_COND_AXIS_OFFSET-1 "-"
*MEAS_COND_AXIS_OFFSET-2 "-"
*MEAS_COND_AXIS_OFFSET-3 "-"
*MEAS_COND_AXIS_OFFSET-4 "-"
*MEAS_COND_AXIS_OFFSET-5 "-"
*MEAS_COND_AXIS_OFFSET-6 "-"
*MEAS_COND_AXIS_OFFSET-7 "-"
*MEAS_COND_AXIS_OFFSET-8 "-"
*MEAS_COND_AXIS_OFFSET-9 "-"
*MEAS_COND_AXIS_OFFSET-10 "-"
*MEAS_COND_AXIS_OFFSET-11 "-"
*MEAS_COND_AXIS_POSITION-0 "10.0000000000"
*MEAS_COND_AXIS_POSITION-1 "0.0000000000"
*MEAS_COND_AXIS_POSITION-2 "4.0000000000"
*MEAS_COND_AXIS_POSITION-3 "2.5deg"
*MEAS_COND_AXIS_POSITION-4 "2.0mm"
*MEAS_COND_AXIS_POSITION-5 "0.625deg"
*MEAS_COND_AXIS_POSITION-6 "13.0mm(Open)"
*MEAS_COND_AXIS_POSITION-7 "2.5deg"
*MEAS_COND_AXIS_POSITION-8 "13.0mm"
*MEAS_COND_AXIS_POSITION-9 "K-beta(x1)"
*MEAS_COND_AXIS_POSITION-10 "None"
*MEAS_COND_AXIS_POSITION-11 "41.0000000000"
*MEAS_COND_AXIS_UNIT-0 "deg"
*MEAS_COND_AXIS_UNIT-1 ""
*MEAS_COND_AXIS_UNIT-2 ""
*MEAS_COND_AXIS_UNIT-3 ""
*MEAS_COND_AXIS_UNIT-4 ""
*MEAS_COND_AXIS_UNIT-5 ""
*MEAS_COND_AXIS_UNIT-6 ""
*MEAS_COND_AXIS_UNIT-7 ""
*MEAS_COND_AXIS_UNIT-8 ""
*MEAS_COND_AXIS_UNIT-9 ""
*MEAS_COND_AXIS_UNIT-10 ""
*MEAS_COND_AXIS_UNIT-11 "div"
*MEAS_COND_CORRECTION_SLIT_COUNTERMONO "None"
*MEAS_COND_CORRECTION_SLIT_DS "0.625deg"
*MEAS_COND_CORRECTION_SLIT_FILTER "None"
*MEAS_COND_CORRECTION_SLIT_IHS "2.0mm"
*MEAS_COND_CORRECTION_SLIT_RS "13.0mm"
*MEAS_COND_CORRECTION_SLIT_SOLLER_INC "2.5deg"
*MEAS_COND_CORRECTION_SLIT_SOLLER_REC "2.5deg"
*MEAS_COND_CORRECTION_SLIT_SS "13.0mm"
*MEAS_COND_COUNTER_CNTLOSS_CORR "0.0000000000"
*MEAS_COND_COUNTER_PHABASE "41.0000000000"
*MEAS_COND_COUNTER_PHAWINDOW "14.0000000000"
*MEAS_COND_COUNTER_PHA_UNIT "div"
*MEAS_COND_COUNTER_TAUDIFF "0.2500000000"
*MEAS_COND_COUNTER_TAUINT "0.7500000000"
*MEAS_COND_IRRADIATION_MODE "OFF"
*MEAS_COND_IRRADIATION_WIDTH ""
*MEAS_COND_OPT_ATTR " "
*MEAS_COND_OPT_NAME ""
*MEAS_COND_UNSYMMETRIC_MODE "OFF"
*MEAS_COND_XG_CURRENT "15.0000000000"
*MEAS_COND_XG_VOLTAGE "40.0000000000"
*MEAS_COND_XG_WAVE_TYPE "Ka"
*MEAS_DATA_COUNT "3201.0000000000"
*MEAS_SCAN_AXIS_X "Theta/2-Theta"
*MEAS_SCAN_AXIS_X_INTERNAL "TwoThetaTheta"
*MEAS_SCAN_END_TIME "09/06/17 11:40:25"
*MEAS_SCAN_MODE "CONTINUOUS"
*MEAS_SCAN_MONITOR "0"
*MEAS_SCAN_RESOLUTION_X "0.005"
*MEAS_SCAN_SPEED "10.000"
*MEAS_SCAN_SPEED_UNIT "deg/min"
*MEAS_SCAN_SPEED_USER "10.000"
*MEAS_SCAN_START "28.0000000000"
*MEAS_SCAN_START_TIME "09/06/17 11:36:25"
*MEAS_SCAN_STEP "0.0100000000"
*MEAS_SCAN_STOP "60.0000000000"
*MEAS_SCAN_UNIT_X "deg"
*MEAS_SCAN_UNIT_Y "counts"
*SLIT_SYSTEM "0"
*RAS_HEADER_END
*RAS_INT_START
28.000 189.000 1.000
28.010 189.000 1.000
28.020 189.000 1.000
28.030 189.000 1.000
28.040 189.000 1.000
28.050 188.000 1.000
28.060 199.000 1.000
28.070 208.000 1.000
28.080 209.000 1.000
28.090 198.000 1.000
28.100 204.000 1.000
28.110 223.000 1.000
28.120 206.000 1.000
28.130 188.000 1.000
28.140 191.000 1.000
28.150 206.000 1.000
28.160 206.000 1.000
28.170 198.000 1.000
28.180 207.000 1.000
28.190 207.000 1.000
28.200 204.000 1.000
28.210 204.000 1.000
28.220 200.000 1.000
28.230 198.000 1.000
28.240 193.000 1.000
28.250 194.000 1.000
28.260 197.000 1.000
28.270 194.000 1.000
28.280 192.000 1.000
28.290 179.000 1.000
28.300 177.000 1.000
28.310 194.000 1.000
28.320 199.000 1.000
28.330 188.000 1.000
28.340 198.000 1.000
28.350 184.000 1.000
28.360 177.000 1.000
28.370 172.000 1.000
28.380 179.000 1.000
28.390 195.000 1.000
28.400 197.000 1.000
28.410 183.000 1.000
28.420 182.000 1.000
28.430 198.000 1.000
28.440 197.000 1.000
28.450 197.000 1.000
28.460 193.000 1.000
28.470 186.000 1.000
28.480 191.000 1.000
28.490 195.000 1.000
28.500 182.000 1.000
28.510 180.000 1.000
28.520 185.000 1.000
28.530 189.000 1.000
28.540 176.000 1.000
28.550 173.000 1.000
28.560 183.000 1.000
28.570 188.000 1.000
28.580 169.000 1.000
28.590 149.000 1.000
28.600 162.000 1.000
28.610 174.000 1.000
28.620 185.000 1.000
28.630 179.000 1.000
28.640 175.000 1.000
28.650 163.000 1.000
28.660 157.000 1.000
28.670 170.000 1.000
28.680 180.000 1.000
28.690 183.000 1.000
28.700 175.000 1.000
28.710 178.000 1.000
28.720 174.000 1.000
28.730 170.000 1.000
28.740 169.000 1.000
28.750 163.000 1.000
28.760 159.000 1.000
28.770 175.000 1.000
28.780 187.000 1.000
28.790 167.000 1.000
28.800 154.000 1.000
28.810 165.000 1.000
28.820 171.000 1.000
28.830 180.000 1.000
28.840 178.000 1.000
28.850 156.000 1.000
28.860 155.000 1.000
28.870 163.000 1.000
28.880 154.000 1.000
28.890 159.000 1.000
28.900 165.000 1.000
28.910 167.000 1.000
28.920 159.000 1.000
28.930 149.000 1.000
28.940 147.000 1.000
28.950 142.000 1.000
28.960 135.000 1.000
28.970 147.000 1.000
28.980 156.000 1.000
28.990 168.000 1.000
29.000 167.000 1.000
29.010 151.000 1.000
29.020 148.000 1.000
29.030 147.000 1.000
29.040 157.000 1.000
29.050 155.000 1.000
29.060 161.000 1.000
29.070 167.000 1.000
29.080 150.000 1.000
29.090 149.000 1.000
29.100 145.000 1.000
29.110 146.000 1.000
29.120 146.000 1.000
29.130 163.000 1.000
29.140 158.000 1.000
29.150 157.000 1.000
29.160 158.000 1.000
29.170 156.000 1.000
29.180 159.000 1.000
29.190 155.000 1.000
29.200 157.000 1.000
29.210 166.000 1.000
29.220 180.000 1.000
29.230 174.000 1.000
29.240 167.000 1.000
29.250 165.000 1.000
29.260 170.000 1.000
29.270 167.000 1.000
29.280 167.000 1.000
29.290 172.000 1.000
29.300 170.000 1.000
29.310 171.000 1.000
29.320 164.000 1.000
29.330 173.000 1.000
29.340 174.000 1.000
29.350 166.000 1.000
29.360 164.000 1.000
29.370 166.000 1.000
29.380 169.000 1.000
29.390 161.000 1.000
29.400 161.000 1.000
29.410 145.000 1.000
29.420 135.000 1.000
29.430 143.000 1.000
29.440 143.000 1.000
29.450 146.000 1.000
29.460 142.000 1.000
29.470 141.000 1.000
29.480 146.000 1.000
29.490 142.000 1.000
29.500 138.000 1.000
29.510 152.000 1.000
29.520 151.000 1.000
29.530 153.000 1.000
29.540 156.000 1.000
29.550 145.000 1.000
29.560 155.000 1.000
29.570 155.000 1.000
29.580 156.000 1.000
29.590 153.000 1.000
29.600 147.000 1.000
29.610 146.000 1.000
29.620 142.000 1.000
29.630 148.000 1.000
29.640 151.000 1.000
29.650 137.000 1.000
29.660 146.000 1.000
29.670 156.000 1.000
29.680 139.000 1.000
29.690 142.000 1.000
29.700 156.000 1.000
29.710 162.000 1.000
29.720 156.000 1.000
29.730 148.000 1.000
29.740 144.000 1.000
29.750 147.000 1.000
29.760 160.000 1.000
29.770 163.000 1.000
29.780 154.000 1.000
29.790 154.000 1.000
29.800 150.000 1.000
29.810 162.000 1.000
29.820 156.000 1.000
29.830 158.000 1.000
29.840 146.000 1.000
29.850 137.000 1.000
29.860 140.000 1.000
29.870 130.000 1.000
29.880 149.000 1.000
29.890 151.000 1.000
29.900 148.000 1.000
29.910 134.000 1.000
29.920 140.000 1.000
29.930 142.000 1.000
29.940 145.000 1.000
29.950 137.000 1.000
29.960 135.000 1.000
29.970 143.000 1.000
29.980 135.000 1.000
29.990 129.000 1.000
30.000 141.000 1.000
30.010 139.000 1.000
30.020 139.000 1.000
30.030 144.000 1.000
30.040 139.000 1.000
30.050 137.000 1.000
30.060 147.000 1.000
30.070 141.000 1.000
30.080 129.000 1.000
30.090 131.000 1.000
30.100 136.000 1.000
30.110 143.000 1.000
30.120 136.000 1.000
30.130 130.000 1.000
30.140 127.000 1.000
30.150 126.000 1.000
30.160 128.000 1.000
30.170 122.000 1.000
30.180 123.000 1.000
30.190 128.000 1.000
30.200 131.000 1.000
30.210 119.000 1.000
30.220 121.000 1.000
30.230 129.000 1.000
30.240 124.000 1.000
30.250 122.000 1.000
30.260 127.000 1.000
30.270 121.000 1.000
30.280 121.000 1.000
30.290 134.000 1.000
30.300 132.000 1.000
30.310 123.000 1.000
30.320 117.000 1.000
30.330 124.000 1.000
30.340 127.000 1.000
30.350 126.000 1.000
30.360 125.000 1.000
30.370 125.000 1.000
30.380 119.000 1.000
30.390 123.000 1.000
30.400 124.000 1.000
30.410 117.000 1.000
30.420 117.000 1.000
30.430 125.000 1.000
30.440 127.000 1.000
30.450 129.000 1.000
30.460 133.000 1.000
30.470 137.000 1.000
30.480 128.000 1.000
30.490 123.000 1.000
30.500 130.000 1.000
30.510 124.000 1.000
30.520 122.000 1.000
30.530 125.000 1.000
30.540 123.000 1.000
30.550 125.000 1.000
30.560 128.000 1.000
30.570 131.000 1.000
30.580 133.000 1.000
30.590 140.000 1.000
30.600 136.000 1.000
30.610 128.000 1.000
30.620 124.000 1.000
30.630 123.000 1.000
30.640 130.000 1.000
30.650 125.000 1.000
30.660 148.000 1.000
30.670 150.000 1.000
30.680 144.000 1.000
30.690 138.000 1.000
30.700 135.000 1.000
30.710 139.000 1.000
30.720 154.000 1.000
30.730 152.000 1.000
30.740 163.000 1.000
30.750 148.000 1.000
30.760 141.000 1.000
30.770 157.000 1.000
30.780 151.000 1.000
30.790 146.000 1.000
30.800 147.000 1.000
30.810 147.000 1.000
30.820 137.000 1.000
30.830 133.000 1.000
30.840 123.000 1.000
30.850 131.000 1.000
30.860 132.000 1.000
30.870 120.000 1.000
30.880 134.000 1.000
30.890 132.000 1.000
30.900 125.000 1.000
30.910 120.000 1.000
30.920 111.000 1.000
30.930 106.000 1.000
30.940 116.000 1.000
30.950 119.000 1.000
30.960 121.000 1.000
30.970 120.000 1.000
30.980 125.000 1.000
30.990 125.000 1.000
31.000 110.000 1.000
31.010 101.000 1.000
31.020 115.000 1.000
31.030 121.000 1.000
31.040 123.000 1.000
31.050 122.000 1.000
31.060 128.000 1.000
31.070 119.000 1.000
31.080 114.000 1.000
31.090 113.000 1.000
31.100 111.000 1.000
31.110 118.000 1.000
31.120 114.000 1.000
31.130 115.000 1.000
31.140 117.000 1.000
31.150 120.000 1.000
31.160 116.000 1.000
31.170 112.000 1.000
31.180 110.000 1.000
31.190 107.000 1.000
31.200 99.000 1.000
31.210 111.000 1.000
31.220 125.000 1.000
31.230 114.000 1.000
31.240 109.000 1.000
31.250 113.000 1.000
31.260 114.000 1.000
31.270 114.000 1.000
31.280 120.000 1.000
31.290 111.000 1.000
31.300 109.000 1.000
31.310 114.000 1.000
31.320 113.000 1.000
31.330 119.000 1.000
31.340 111.000 1.000
31.350 118.000 1.000
31.360 120.000 1.000
31.370 118.000 1.000
31.380 105.000 1.000
31.390 110.000 1.000
31.400 118.000 1.000
31.410 113.000 1.000
31.420 110.000 1.000
31.430 104.000 1.000
31.440 107.000 1.000
31.450 115.000 1.000
31.460 118.000 1.000
31.470 122.000 1.000
31.480 112.000 1.000
31.490 115.000 1.000
31.500 118.000 1.000
31.510 118.000 1.000
31.520 109.000 1.000
31.530 104.000 1.000
31.540 104.000 1.000
31.550 113.000 1.000
31.560 113.000 1.000
31.570 120.000 1.000
31.580 112.000 1.000
31.590 99.000 1.000
31.600 106.000 1.000
31.610 102.000 1.000
31.620 113.000 1.000
31.630 123.000 1.000
31.640 118.000 1.000
31.650 121.000 1.000
31.660 117.000 1.000
31.670 109.000 1.000
31.680 96.000 1.000
31.690 106.000 1.000
31.700 111.000 1.000
31.710 109.000 1.000
31.720 124.000 1.000
31.730 115.000 1.000
31.740 111.000 1.000
31.750 106.000 1.000
31.760 97.000 1.000
31.770 97.000 1.000
31.780 95.000 1.000
31.790 100.000 1.000
31.800 99.000 1.000
31.810 105.000 1.000
31.820 104.000 1.000
31.830 101.000 1.000
31.840 108.000 1.000
31.850 110.000 1.000
31.860 103.000 1.000
31.870 104.000 1.000
31.880 105.000 1.000
31.890 109.000 1.000
31.900 93.000 1.000
31.910 107.000 1.000
31.920 116.000 1.000
31.930 112.000 1.000
31.940 98.000 1.000
31.950 102.000 1.000
31.960 95.000 1.000
31.970 98.000 1.000
31.980 117.000 1.000
31.990 109.000 1.000
32.000 108.000 1.000
32.010 116.000 1.000
32.020 110.000 1.000
32.030 107.000 1.000
32.040 103.000 1.000
32.050 112.000 1.000
32.060 115.000 1.000
32.070 105.000 1.000
32.080 102.000 1.000
32.090 114.000 1.000
32.100 120.000 1.000
32.110 109.000 1.000
32.120 95.000 1.000
32.130 91.000 1.000
32.140 107.000 1.000
32.150 108.000 1.000
32.160 102.000 1.000
32.170 97.000 1.000
32.180 95.000 1.000
32.190 95.000 1.000
32.200 98.000 1.000
32.210 104.000 1.000
32.220 100.000 1.000
32.230 102.000 1.000
32.240 117.000 1.000
32.250 110.000 1.000
32.260 99.000 1.000
32.270 96.000 1.000
32.280 101.000 1.000
32.290 103.000 1.000
32.300 100.000 1.000
32.310 95.000 1.000
32.320 105.000 1.000
32.330 110.000 1.000
32.340 103.000 1.000
32.350 93.000 1.000
32.360 88.000 1.000
32.370 93.000 1.000
32.380 97.000 1.000
32.390 105.000 1.000
32.400 107.000 1.000
32.410 106.000 1.000
32.420 103.000 1.000
32.430 107.000 1.000
32.440 114.000 1.000
32.450 102.000 1.000
32.460 103.000 1.000
32.470 101.000 1.000
32.480 97.000 1.000
32.490 105.000 1.000
32.500 114.000 1.000
32.510 111.000 1.000
32.520 100.000 1.000
32.530 106.000 1.000
32.540 116.000 1.000
32.550 114.000 1.000
32.560 113.000 1.000
32.570 109.000 1.000
32.580 102.000 1.000
32.590 108.000 1.000
32.600 96.000 1.000
32.610 101.000 1.000
32.620 110.000 1.000
32.630 108.000 1.000
32.640 103.000 1.000
32.650 104.000 1.000
32.660 101.000 1.000
32.670 112.000 1.000
32.680 117.000 1.000
32.690 105.000 1.000
32.700 105.000 1.000
32.710 103.000 1.000
32.720 105.000 1.000
32.730 114.000 1.000
32.740 118.000 1.000
32.750 116.000 1.000
32.760 112.000 1.000
32.770 101.000 1.000
32.780 101.000 1.000
32.790 121.000 1.000
32.800 117.000 1.000
32.810 102.000 1.000
32.820 95.000 1.000
32.830 105.000 1.000
32.840 109.000 1.000
32.850 98.000 1.000
32.860 104.000 1.000
32.870 105.000 1.000
32.880 96.000 1.000
32.890 98.000 1.000
32.900 110.000 1.000
32.910 109.000 1.000
32.920 97.000 1.000
32.930 82.000 1.000
32.940 87.000 1.000
32.950 104.000 1.000
32.960 105.000 1.000
32.970 95.000 1.000
32.980 96.000 1.000
32.990 97.000 1.000
33.000 99.000 1.000
33.010 99.000 1.000
