*RAS_DATA_START
*RAS_HEADER_START
*CORR_POS_DB_NAME "DTEX_11112016"
*CORR_POS_GONIO_RADIUS ""
*CORR_POS_NODE_INDEX01 ""
*CORR_POS_NODE_INDEX02 ""
*CORR_POS_NODE_INDEX03 ""
*CORR_POS_NODE_INDEX04 ""
*CORR_POS_NODE_INDEX05 ""
*CORR_POS_NODE_INDEX06 ""
*CORR_POS_NODE_INDEX07 ""
*CORR_POS_NODE_INDEX08 ""
*CORR_POS_NODE_INDEX09 ""
*CORR_POS_NODE_INDEX10 ""
*CORR_POS_NODE_INDEX11 ""
*CORR_POS_NODE_LABEL01 "Si(111)"
*CORR_POS_NODE_LABEL02 "Si(220)"
*CORR_POS_NODE_LABEL03 "Si(311)"
*CORR_POS_NODE_LABEL04 "Si(400)"
*CORR_POS_NODE_LABEL05 "Si(331)"
*CORR_POS_NODE_LABEL06 "Si(422)"
*CORR_POS_NODE_LABEL07 "Si(511)"
*CORR_POS_NODE_LABEL08 "Si(440)"
*CORR_POS_NODE_LABEL09 "Si(531)"
*CORR_POS_NODE_LABEL10 "Si(620)"
*CORR_POS_NODE_LABEL11 "Si(533)"
*CORR_POS_NODE_POS_CALC01 "28.4137"
*CORR_POS_NODE_POS_CALC02 "47.2707"
*CORR_POS_NODE_POS_CALC03 "56.0883"
*CORR_POS_NODE_POS_CALC04 "69.0934"
*CORR_POS_NODE_POS_CALC05 "76.3385"
*CORR_POS_NODE_POS_CALC06 "87.9915"
*CORR_POS_NODE_POS_CALC07 "94.9137"
*CORR_POS_NODE_POS_CALC08 "106.67"
*CORR_POS_NODE_POS_CALC09 "114.054"
*CORR_POS_NODE_POS_CALC10 "127.508"
*CORR_POS_NODE_POS_CALC11 "136.858"
*CORR_POS_NODE_POS_MEAS01 "28.3712"
*CORR_POS_NODE_POS_MEAS02 "47.2304"
*CORR_POS_NODE_POS_MEAS03 "56.0465"
*CORR_POS_NODE_POS_MEAS04 "69.0523"
*CORR_POS_NODE_POS_MEAS05 "76.2993"
*CORR_POS_NODE_POS_MEAS06 "87.9512"
*CORR_POS_NODE_POS_MEAS07 "94.8772"
*CORR_POS_NODE_POS_MEAS08 "106.636"
*CORR_POS_NODE_POS_MEAS09 "114.028"
*CORR_POS_NODE_POS_MEAS10 "127.48"
*CORR_POS_NODE_POS_MEAS11 "136.839"
*CORR_POS_OPT_ATTR "集中法"
*CORR_POS_PARAM_MU ""
*CORR_POS_PARAM_PL ""
*CORR_POS_SEMODEL_TYPE "0"
*CORR_POS_STANDARD_TYPE ""
*CORR_POS_VALUE_ANALYZER "None"
*CORR_POS_VALUE_CMONO "None"
*CORR_POS_VALUE_IMONO "None"
*CORR_POS_VALUE_IS "0.625deg"
*CORR_POS_VALUE_ISL "10.0mm"
*CORR_POS_VALUE_ISOLLER "2.5deg"
*CORR_POS_VALUE_RS1 "13.0mm"
*CORR_POS_VALUE_RS2 "13.0mm"
*CORR_POS_VALUE_RSOLLER "2.5deg"
*CORR_POS_XG_FOCUS_L ""
*CORR_POS_XG_WAVE_TYPE ""
*CORR_POS_XG_WAVE_VALUE ""
*DISP_FMT_X "%.2f"
*DISP_FMT_Y "%.0f"
*DISP_FULLSCALE "17755.2000000000"
*DISP_LINE_COLOR "255.0000000000"
*DISP_LINE_STYLE "0.0000000000"
*DISP_LINE_WIDTH "0.2500000000"
*DISP_NOTE "Collected Data-1"
*DISP_OFFSET_Y "0.0000000000"
*DISP_PEAKSEARCH_UNIT_Y "COUNTS"
*DISP_RANGE_BOTTOM "0.0000000000"
*DISP_RANGE_LEFT "20.0000000000"
*DISP_RANGE_LOGCUTOFF "0.0100000000"
*DISP_RANGE_RIGHT "90.0000000000"
*DISP_RANGE_TOP "17755.2000000000"
*DISP_SCALE_MODE_Y "0.0000000000"
*DISP_TAB_NAME "Theta/2-Theta"
*DISP_TITLE_Y "Intensity"
*DISP_UNIT_Y "COUNTS"
*DISP_WINDOW_NAME "MSG_MACROENGINE"
*FILE_COMMENT " "
*FILE_MD5 ""
*FILE_MEMO " "
*FILE_OPERATOR "MiniFlex"
*FILE_PART_ID "MEAS_PBEA_00223"
*FILE_SAMPLE "cu2o_010"
*FILE_TYPE "RAS_RAW"
*FILE_USERGROUP "System User"
*FILE_VERSION "1.0000000000"
*HW_ATTACHMENT_ID "ATT1031"
*HW_ATTACHMENT_NAME "6サンプルチェンジャ|ASC-6"
*HW_COUNTER_ID-0 "CUT0025"
*HW_COUNTER_ID-1 "CUT0020"
*HW_COUNTER_ID-2 "CUT0020"
*HW_COUNTER_ID-3 "CMC0021"
*HW_COUNTER_NAME-0 "D/teX Ultra|D/teX Ultra"
*HW_COUNTER_NAME-1 "None|None"
*HW_COUNTER_NAME-2 "None|None"
*HW_COUNTER_NAME-3 "検出器モノクロメータ|Detector monochromator"
*HW_COUNTER_SELECT_NAME "D/teX Ultra|D/teX Ultra"
*HW_GONIOMETER_ID "GON0070"
*HW_GONIOMETER_NAME "MiniFlex 300/600|MiniFlex 300/600"
*HW_GONIOMETER_RADIUS-0 "79.0"
*HW_GONIOMETER_RADIUS-1 "91.5"
*HW_GONIOMETER_RADIUS-2 "150.0"
*HW_GONIOMETER_RADIUS-3 "0"
*HW_GONIOMETER_RADIUS-4 "103.4"
*HW_GONIOMETER_RADIUS-5 "150.0"
*HW_GONIOMETER_RADIUS-6 "46.6"
*HW_GONIOMETER_RADIUS-7 "160.0"
*HW_I_OPT_ID-0 "ISL0021"
*HW_I_OPT_ID-1 "ISO0021"
*HW_I_OPT_NAME-0 "発散スリット|Divergence slit"
*HW_I_OPT_NAME-1 "入射平行スリット|Incident parallel slit"
*HW_R_ATTENUATER_AUTOMODE "0"
*HW_R_OPT_ID-0 "RSS0021"
*HW_R_OPT_ID-1 "RSO0021"
*HW_R_OPT_ID-2 "RRS0021"
*HW_R_OPT_NAME-0 "散乱スリット|Scattering slit"
*HW_R_OPT_NAME-1 "受光平行スリット|Receiving soller slit"
*HW_R_OPT_NAME-2 "受光スリット|Receiving slit"
*HW_SAMPLE_HOLDER_ID "SMP0000"
*HW_SAMPLE_HOLDER_NAME "無し|None"
*HW_XG_CURRENT_MAX "15"
*HW_XG_CURRENT_MIN "2"
*HW_XG_CURRENT_RESOLUTION "1"
*HW_XG_CURRENT_UNIT "mA"
*HW_XG_FOCUS "1mm x 10mm"
*HW_XG_FOCUS_TYPE "Normal"
*HW_XG_ID "1060"
*HW_XG_NAME "300W/600W 封入管-B|300W/600W Sealed tube-B"
*HW_XG_TARGET_ATOMIC_NUMBER "29.0000000000"
*HW_XG_TARGET_NAME "Cu"
*HW_XG_TYPE "Hermetic"
*HW_XG_VOLTAGE_MAX "40"
*HW_XG_VOLTAGE_MIN "20"
*HW_XG_VOLTAGE_RESOLUTION "1"
*HW_XG_VOLTAGE_UNIT "kV"
*HW_XG_WATT_MAX "1"
*HW_XG_WATT_UNIT "kW"
*HW_XG_WAVE_LENGTH_ALPHA1 "1.540593"
*HW_XG_WAVE_LENGTH_ALPHA2 "1.544414"
*HW_XG_WAVE_LENGTH_BETA "1.392250"
*MEAS_COND_AXIS_NAME-0 "Theta/2-Theta"
*MEAS_COND_AXIS_NAME-1 "Spin"
*MEAS_COND_AXIS_NAME-2 "Change"
*MEAS_COND_AXIS_NAME-3 "Soller(inc.)"
*MEAS_COND_AXIS_NAME-4 "IHS"
*MEAS_COND_AXIS_NAME-5 "DS"
*MEAS_COND_AXIS_NAME-6 "SS"
*MEAS_COND_AXIS_NAME-7 "Soller(rec.)"
*MEAS_COND_AXIS_NAME-8 "RS"
*MEAS_COND_AXIS_NAME-9 "Filter"
*MEAS_COND_AXIS_NAME-10 "Monochromator"
*MEAS_COND_AXIS_NAME-11 "PHA"
*MEAS_COND_AXIS_NAME_INTERNAL-0 "TwoThetaTheta"
*MEAS_COND_AXIS_NAME_INTERNAL-1 "Spin"
*MEAS_COND_AXIS_NAME_INTERNAL-2 "Change"
*MEAS_COND_AXIS_NAME_INTERNAL-3 "IncidentSollerSlit"
*MEAS_COND_AXIS_NAME_INTERNAL-4 "IncidentAxdSlit"
*MEAS_COND_AXIS_NAME_INTERNAL-5 "IncidentSlitBox"
*MEAS_COND_AXIS_NAME_INTERNAL-6 "ReceivingSlitBox1"
*MEAS_COND_AXIS_NAME_INTERNAL-7 "ReceivingSollerSlit"
*MEAS_COND_AXIS_NAME_INTERNAL-8 "ReceivingSlitBox2"
*MEAS_COND_AXIS_NAME_INTERNAL-9 "Filter"
*MEAS_COND_AXIS_NAME_INTERNAL-10 "CounterMonochromator"
*MEAS_COND_AXIS_NAME_INTERNAL-11 "PHA"
*MEAS_COND_AXIS_NAME_MAGICNO-0 "268632064.0000000000"
*MEAS_COND_AXIS_NAME_MAGICNO-1 "16842752.0000000000"
*MEAS_COND_AXIS_NAME_MAGICNO-2 "16842752.0000000000"
*MEAS_COND_AXIS_NAME_MAGICNO-3 "20971521.0000000000"
*MEAS_COND_AXIS_NAME_MAGICNO-4 "22020097.0000000000"
*MEAS_COND_AXIS_NAME_MAGICNO-5 "22020097.0000000000"
*MEAS_COND_AXIS_NAME_MAGICNO-6 "23068673.0000000000"
*MEAS_COND_AXIS_NAME_MAGICNO-7 "20971521.0000000000"
*MEAS_COND_AXIS_NAME_MAGICNO-8 "23068673.0000000000"
*MEAS_COND_AXIS_NAME_MAGICNO-9 "20971521.0000000000"
*MEAS_COND_AXIS_NAME_MAGICNO-10 "20971521.0000000000"
*MEAS_COND_AXIS_NAME_MAGICNO-11 "0.0000000000"
*MEAS_COND_AXIS_OFFSET-0 "0.0000000000"
*MEAS_COND_AXIS_OFFSET-1 "-"
*MEAS_COND_AXIS_OFFSET-2 "-"
*MEAS_COND_AXIS_OFFSET-3 "-"
*MEAS_COND_AXIS_OFFSET-4 "-"
*MEAS_COND_AXIS_OFFSET-5 "-"
*MEAS_COND_AXIS_OFFSET-6 "-"
*MEAS_COND_AXIS_OFFSET-7 "-"
*MEAS_COND_AXIS_OFFSET-8 "-"
*MEAS_COND_AXIS_OFFSET-9 "-"
*MEAS_COND_AXIS_OFFSET-10 "-"
*MEAS_COND_AXIS_OFFSET-11 "-"
*MEAS_COND_AXIS_POSITION-0 "10.0000000000"
*MEAS_COND_AXIS_POSITION-1 "0.0000000000"
*MEAS_COND_AXIS_POSITION-2 "4.0000000000"
*MEAS_COND_AXIS_POSITION-3 "2.5deg"
*MEAS_COND_AXIS_POSITION-4 "2.0mm"
*MEAS_COND_AXIS_POSITION-5 "0.625deg"
*MEAS_COND_AXIS_POSITION-6 "13.0mm(Open)"
*MEAS_COND_AXIS_POSITION-7 "2.5deg"
*MEAS_COND_AXIS_POSITION-8 "13.0mm"
*MEAS_COND_AXIS_POSITION-9 "K-beta(x1)"
*MEAS_COND_AXIS_POSITION-10 "None"
*MEAS_COND_AXIS_POSITION-11 "41.0000000000"
*MEAS_COND_AXIS_UNIT-0 "deg"
*MEAS_COND_AXIS_UNIT-1 ""
*MEAS_COND_AXIS_UNIT-2 ""
*MEAS_COND_AXIS_UNIT-3 ""
*MEAS_COND_AXIS_UNIT-4 ""
*MEAS_COND_AXIS_UNIT-5 ""
*MEAS_COND_AXIS_UNIT-6 ""
*MEAS_COND_AXIS_UNIT-7 ""
*MEAS_COND_AXIS_UNIT-8 ""
*MEAS_COND_AXIS_UNIT-9 ""
*MEAS_COND_AXIS_UNIT-10 ""
*MEAS_COND_AXIS_UNIT-11 "div"
*MEAS_COND_CORRECTION_SLIT_COUNTERMONO "None"
*MEAS_COND_CORRECTION_SLIT_DS "0.625deg"
*MEAS_COND_CORRECTION_SLIT_FILTER "None"
*MEAS_COND_CORRECTION_SLIT_IHS "2.0mm"
*MEAS_COND_CORRECTION_SLIT_RS "13.0mm"
*MEAS_COND_CORRECTION_SLIT_SOLLER_INC "2.5deg"
*MEAS_COND_CORRECTION_SLIT_SOLLER_REC "2.5deg"
*MEAS_COND_CORRECTION_SLIT_SS "13.0mm"
*MEAS_COND_COUNTER_CNTLOSS_CORR "0.0000000000"
*MEAS_COND_COUNTER_PHABASE "41.0000000000"
*MEAS_COND_COUNTER_PHAWINDOW "14.0000000000"
*MEAS_COND_COUNTER_PHA_UNIT "div"
*MEAS_COND_COUNTER_TAUDIFF "0.2500000000"
*MEAS_COND_COUNTER_TAUINT "0.7500000000"
*MEAS_COND_IRRADIATION_MODE "OFF"
*MEAS_COND_IRRADIATION_WIDTH ""
*MEAS_COND_OPT_ATTR " "
*MEAS_COND_OPT_NAME ""
*MEAS_COND_UNSYMMETRIC_MODE "OFF"
*MEAS_COND_XG_CURRENT "15.0000000000"
*MEAS_COND_XG_VOLTAGE "40.0000000000"
*MEAS_COND_XG_WAVE_TYPE "Ka"
*MEAS_DATA_COUNT "3501.0000000000"
*MEAS_SCAN_AXIS_X "Theta/2-Theta"
*MEAS_SCAN_AXIS_X_INTERNAL "TwoThetaTheta"
*MEAS_SCAN_END_TIME "09/06/17 11:32:11"
*MEAS_SCAN_MODE "CONTINUOUS"
*MEAS_SCAN_MONITOR "0"
*MEAS_SCAN_RESOLUTION_X "0.005"
*MEAS_SCAN_SPEED "10.000"
*MEAS_SCAN_SPEED_UNIT "deg/min"
*MEAS_SCAN_SPEED_USER "10.000"
*MEAS_SCAN_START "20.0000000000"
*MEAS_SCAN_START_TIME "09/06/17 11:24:25"
*MEAS_SCAN_STEP "0.0200000000"
*MEAS_SCAN_STOP "90.0000000000"
*MEAS_SCAN_UNIT_X "deg"
*MEAS_SCAN_UNIT_Y "counts"
*SLIT_SYSTEM "0"
*RAS_HEADER_END
*RAS_INT_START
20.000 286.000 1.000
20.020 286.000 1.000
20.040 286.000 1.000
20.060 288.000 1.000
20.080 279.000 1.000
20.100 305.000 1.000
20.120 306.000 1.000
20.140 330.000 1.000
20.160 313.000 1.000
20.180 308.000 1.000
20.200 312.000 1.000
20.220 296.000 1.000
20.240 302.000 1.000
20.260 288.000 1.000
20.280 327.000 1.000
20.300 268.000 1.000
20.320 276.000 1.000
20.340 284.000 1.000
20.360 278.000 1.000
20.380 286.000 1.000
20.400 286.000 1.000
20.420 313.000 1.000
20.440 291.000 1.000
20.460 297.000 1.000
20.480 306.000 1.000
20.500 297.000 1.000
20.520 299.000 1.000
20.540 307.000 1.000
20.560 296.000 1.000
20.580 294.000 1.000
20.600 311.000 1.000
20.620 300.000 1.000
20.640 292.000 1.000
20.660 285.000 1.000
20.680 294.000 1.000
20.700 287.000 1.000
20.720 290.000 1.000
20.740 282.000 1.000
20.760 294.000 1.000
20.780 313.000 1.000
20.800 302.000 1.000
20.820 292.000 1.000
20.840 295.000 1.000
20.860 316.000 1.000
20.880 313.000 1.000
20.900 299.000 1.000
20.920 311.000 1.000
20.940 314.000 1.000
20.960 286.000 1.000
20.980 281.000 1.000
21.000 303.000 1.000
21.020 314.000 1.000
21.040 314.000 1.000
21.060 312.000 1.000
21.080 312.000 1.000
21.100 318.000 1.000
21.120 291.000 1.000
21.140 283.000 1.000
21.160 291.000 1.000
21.180 331.000 1.000
21.200 344.000 1.000
21.220 346.000 1.000
21.240 333.000 1.000
21.260 356.000 1.000
21.280 343.000 1.000
21.300 363.000 1.000
21.320 356.000 1.000
21.340 374.000 1.000
21.360 347.000 1.000
21.380 330.000 1.000
21.400 316.000 1.000
21.420 319.000 1.000
21.440 339.000 1.000
21.460 317.000 1.000
21.480 319.000 1.000
21.500 327.000 1.000
21.520 301.000 1.000
21.540 300.000 1.000
21.560 319.000 1.000
21.580 329.000 1.000
21.600 312.000 1.000
21.620 320.000 1.000
21.640 317.000 1.000
21.660 321.000 1.000
21.680 329.000 1.000
21.700 326.000 1.000
21.720 307.000 1.000
21.740 307.000 1.000
21.760 329.000 1.000
21.780 344.000 1.000
21.800 311.000 1.000
21.820 307.000 1.000
21.840 308.000 1.000
21.860 317.000 1.000
21.880 332.000 1.000
21.900 311.000 1.000
21.920 333.000 1.000
21.940 313.000 1.000
21.960 320.000 1.000
21.980 340.000 1.000
22.000 338.000 1.000
22.020 329.000 1.000
22.040 335.000 1.000
22.060 319.000 1.000
22.080 343.000 1.000
22.100 351.000 1.000
22.120 340.000 1.000
22.140 342.000 1.000
22.160 349.000 1.000
22.180 354.000 1.000
22.200 326.000 1.000
22.220 314.000 1.000
22.240 328.000 1.000
22.260 348.000 1.000
22.280 342.000 1.000
22.300 326.000 1.000
22.320 322.000 1.000
22.340 341.000 1.000
22.360 345.000 1.000
22.380 356.000 1.000
22.400 364.000 1.000
22.420 367.000 1.000
22.440 332.000 1.000
22.460 350.000 1.000
22.480 354.000 1.000
22.500 383.000 1.000
22.520 356.000 1.000
22.540 357.000 1.000
22.560 359.000 1.000
22.580 361.000 1.000
22.600 374.000 1.000
22.620 360.000 1.000
22.640 368.000 1.000
22.660 376.000 1.000
22.680 382.000 1.000
22.700 358.000 1.000
22.720 356.000 1.000
22.740 356.000 1.000
22.760 377.000 1.000
22.780 366.000 1.000
22.800 355.000 1.000
22.820 391.000 1.000
22.840 395.000 1.000
22.860 389.000 1.000
22.880 390.000 1.000
22.900 390.000 1.000
22.920 412.000 1.000
22.940 379.000 1.000
22.960 349.000 1.000
22.980 386.000 1.000
23.000 414.000 1.000
23.020 388.000 1.000
23.040 410.000 1.000
23.060 409.000 1.000
23.080 409.000 1.000
23.100 427.000 1.000
23.120 401.000 1.000
23.140 421.000 1.000
23.160 398.000 1.000
23.180 421.000 1.000
23.200 397.000 1.000
23.220 424.000 1.000
23.240 417.000 1.000
23.260 403.000 1.000
23.280 410.000 1.000
23.300 439.000 1.000
23.320 443.000 1.000
23.340 459.000 1.000
23.360 464.000 1.000
23.380 447.000 1.000
23.400 440.000 1.000
23.420 425.000 1.000
23.440 449.000 1.000
23.460 456.000 1.000
23.480 468.000 1.000
23.500 455.000 1.000
23.520 470.000 1.000
23.540 477.000 1.000
23.560 464.000 1.000
23.580 487.000 1.000
23.600 492.000 1.000
23.620 496.000 1.000
23.640 542.000 1.000
23.660 525.000 1.000
23.680 507.000 1.000
23.700 523.000 1.000
23.720 513.000 1.000
23.740 518.000 1.000
23.760 486.000 1.000
23.780 497.000 1.000
23.800 511.000 1.000
23.820 518.000 1.000
23.840 548.000 1.000
23.860 523.000 1.000
23.880 550.000 1.000
23.900 542.000 1.000
23.920 557.000 1.000
23.940 560.000 1.000
23.960 585.000 1.000
23.980 587.000 1.000
24.000 574.000 1.000
24.020 572.000 1.000
24.040 572.000 1.000
24.060 596.000 1.000
24.080 603.000 1.000
24.100 604.000 1.000
24.120 617.000 1.000
24.140 629.000 1.000
24.160 643.000 1.000
24.180 634.000 1.000
24.200 619.000 1.000
24.220 669.000 1.000
24.240 673.000 1.000
24.260 705.000 1.000
24.280 711.000 1.000
24.300 672.000 1.000
24.320 655.000 1.000
24.340 692.000 1.000
24.360 707.000 1.000
24.380 724.000 1.000
24.400 734.000 1.000
24.420 729.000 1.000
24.440 746.000 1.000
24.460 782.000 1.000
24.480 811.000 1.000
24.500 828.000 1.000
24.520 828.000 1.000
24.540 852.000 1.000
24.560 836.000 1.000
24.580 875.000 1.000
24.600 873.000 1.000
24.620 892.000 1.000
24.640 934.000 1.000
24.660 888.000 1.000
24.680 915.000 1.000
24.700 945.000 1.000
24.720 953.000 1.000
24.740 983.000 1.000
24.760 1003.000 1.000
24.780 1007.000 1.000
24.800 1006.000 1.000
24.820 1064.000 1.000
24.840 1079.000 1.000
24.860 1089.000 1.000
24.880 1127.000 1.000
24.900 1145.000 1.000
24.920 1141.000 1.000
24.940 1201.000 1.000
24.960 1248.000 1.000
24.980 1241.000 1.000
25.000 1251.000 1.000
25.020 1296.000 1.000
25.040 1347.000 1.000
25.060 1365.000 1.000
25.080 1400.000 1.000
25.100 1455.000 1.000
25.120 1433.000 1.000
25.140 1467.000 1.000
25.160 1480.000 1.000
25.180 1547.000 1.000
25.200 1607.000 1.000
25.220 1626.000 1.000
25.240 1666.000 1.000
25.260 1672.000 1.000
25.280 1704.000 1.000
25.300 1795.000 1.000
25.320 1877.000 1.000
25.340 1862.000 1.000
25.360 1902.000 1.000
25.380 1997.000 1.000
25.400 2080.000 1.000
25.420 2072.000 1.000
25.440 2161.000 1.000
25.460 2208.000 1.000
25.480 2246.000 1.000
25.500 2364.000 1.000
25.520 2322.000 1.000
25.540 2382.000 1.000
25.560 2470.000 1.000
25.580 2546.000 1.000
25.600 2676.000 1.000
25.620 2661.000 1.000
25.640 2785.000 1.000
25.660 2809.000 1.000
25.680 2833.000 1.000
25.700 2935.000 1.000
25.720 2939.000 1.000
25.740 2981.000 1.000
25.760 3090.000 1.000
25.780 3182.000 1.000
25.800 3229.000 1.000
25.820 3209.000 1.000
25.840 3202.000 1.000
25.860 3331.000 1.000
25.880 3414.000 1.000
25.900 3415.000 1.000
25.920 3464.000 1.000
25.940 3548.000 1.000
25.960 3657.000 1.000
25.980 3614.000 1.000
26.000 3738.000 1.000
26.020 3815.000 1.000
26.040 3893.000 1.000
26.060 3958.000 1.000
26.080 4085.000 1.000
26.100 4191.000 1.000
26.120 4262.000 1.000
26.140 4437.000 1.000
26.160 4664.000 1.000
26.180 4941.000 1.000
26.200 5247.000 1.000
26.220 5728.000 1.000
26.240 6217.000 1.000
26.260 7032.000 1.000
26.280 7931.000 1.000
26.300 9077.000 1.000
26.320 10403.000 1.000
26.340 11595.000 1.000
26.360 12804.000 1.000
26.380 13967.000 1.000
26.400 14480.000 1.000
26.420 14796.000 1.000
26.440 14392.000 1.000
26.460 13597.000 1.000
26.480 12059.000 1.000
26.500 10541.000 1.000
26.520 8736.000 1.000
26.540 7150.000 1.000
26.560 5699.000 1.000
26.580 4722.000 1.000
26.600 3775.000 1.000
26.620 3161.000 1.000
26.640 2662.000 1.000
26.660 2404.000 1.000
26.680 2183.000 1.000
26.700 1924.000 1.000
26.720 1773.000 1.000
26.740 1682.000 1.000
26.760 1616.000 1.000
26.780 1573.000 1.000
26.800 1450.000 1.000
26.820 1421.000 1.000
26.840 1354.000 1.000
26.860 1292.000 1.000
26.880 1214.000 1.000
26.900 1145.000 1.000
26.920 1138.000 1.000
26.940 1113.000 1.000
26.960 1050.000 1.000
26.980 979.000 1.000
27.000 962.000 1.000
27.020 942.000 1.000
27.040 934.000 1.000
27.060 961.000 1.000
27.080 876.000 1.000
27.100 818.000 1.000
27.120 820.000 1.000
27.140 778.000 1.000
27.160 774.000 1.000
27.180 747.000 1.000
27.200 755.000 1.000
27.220 754.000 1.000
27.240 720.000 1.000
27.260 674.000 1.000
27.280 685.000 1.000
27.300 706.000 1.000
27.320 666.000 1.000
27.340 662.000 1.000
27.360 667.000 1.000
27.380 655.000 1.000
27.400 639.000 1.000
27.420 621.000 1.000
27.440 597.000 1.000
27.460 588.000 1.000
27.480 587.000 1.000
27.500 565.000 1.000
27.520 556.000 1.000
27.540 594.000 1.000
27.560 552.000 1.000
27.580 505.000 1.000
27.600 513.000 1.000
27.620 520.000 1.000
27.640 531.000 1.000
27.660 535.000 1.000
27.680 510.000 1.000
27.700 512.000 1.000
27.720 542.000 1.000
27.740 489.000 1.000
27.760 459.000 1.000
27.780 437.000 1.000
27.800 474.000 1.000
27.820 485.000 1.000
27.840 471.000 1.000
27.860 466.000 1.000
27.880 452.000 1.000
27.900 462.000 1.000
27.920 429.000 1.000
27.940 457.000 1.000
27.960 452.000 1.000
27.980 434.000 1.000
28.000 441.000 1.000
28.020 402.000 1.000
28.040 405.000 1.000
28.060 439.000 1.000
28.080 431.000 1.000
28.100 416.000 1.000
28.120 406.000 1.000
28.140 390.000 1.000
28.160 424.000 1.000
28.180 394.000 1.000
28.200 428.000 1.000
28.220 396.000 1.000
28.240 388.000 1.000
28.260 403.000 1.000
28.280 408.000 1.000
28.300 404.000 1.000
28.320 395.000 1.000
28.340 392.000 1.000
28.360 365.000 1.000
28.380 344.000 1.000
28.400 335.000 1.000
28.420 352.000 1.000
28.440 360.000 1.000
28.460 365.000 1.000
28.480 375.000 1.000
28.500 341.000 1.000
28.520 375.000 1.000
28.540 345.000 1.000
28.560 336.000 1.000
28.580 335.000 1.000
28.600 339.000 1.000
28.620 350.000 1.000
28.640 323.000 1.000
28.660 351.000 1.000
28.680 349.000 1.000
28.700 348.000 1.000
28.720 347.000 1.000
28.740 325.000 1.000
28.760 337.000 1.000
28.780 335.000 1.000
28.800 329.000 1.000
28.820 335.000 1.000
28.840 330.000 1.000
28.860 326.000 1.000
28.880 322.000 1.000
28.900 349.000 1.000
28.920 312.000 1.000
28.940 290.000 1.000
28.960 322.000 1.000
28.980 333.000 1.000
29.000 340.000 1.000
29.020 311.000 1.000
29.040 279.000 1.000
29.060 318.000 1.000
29.080 303.000 1.000
29.100 312.000 1.000
29.120 303.000 1.000
29.140 303.000 1.000
29.160 333.000 1.000
29.180 337.000 1.000
29.200 335.000 1.000
29.220 349.000 1.000
29.240 378.000 1.000
29.260 381.000 1.000
29.280 350.000 1.000
29.300 357.000 1.000
29.320 367.000 1.000
29.340 360.000 1.000
29.360 321.000 1.000
29.380 346.000 1.000
29.400 322.000 1.000
29.420 328.000 1.000
29.440 312.000 1.000
29.460 314.000 1.000
29.480 326.000 1.000
29.500 300.000 1.000
29.520 311.000 1.000
29.540 343.000 1.000
29.560 304.000 1.000
29.580 319.000 1.000
29.600 311.000 1.000
29.620 308.000 1.000
29.640 304.000 1.000
29.660 305.000 1.000
29.680 308.000 1.000
29.700 319.000 1.000
29.720 311.000 1.000
29.740 296.000 1.000
29.760 302.000 1.000
29.780 310.000 1.000
29.800 307.000 1.000
29.820 312.000 1.000
29.840 336.000 1.000
29.860 286.000 1.000
29.880 287.000 1.000
29.900 280.000 1.000
