*RAS_DATA_START
*RAS_HEADER_START
*CORR_POS_DB_NAME "DTEX_11112016"
*CORR_POS_GONIO_RADIUS ""
*CORR_POS_NODE_INDEX01 ""
*CORR_POS_NODE_INDEX02 ""
*CORR_POS_NODE_INDEX03 ""
*CORR_POS_NODE_INDEX04 ""
*CORR_POS_NODE_INDEX05 ""
*CORR_POS_NODE_INDEX06 ""
*CORR_POS_NODE_INDEX07 ""
*CORR_POS_NODE_INDEX08 ""
*CORR_POS_NODE_INDEX09 ""
*CORR_POS_NODE_INDEX10 ""
*CORR_POS_NODE_INDEX11 ""
*CORR_POS_NODE_LABEL01 "Si(111)"
*CORR_POS_NODE_LABEL02 "Si(220)"
*CORR_POS_NODE_LABEL03 "Si(311)"
*CORR_POS_NODE_LABEL04 "Si(400)"
*CORR_POS_NODE_LABEL05 "Si(331)"
*CORR_POS_NODE_LABEL06 "Si(422)"
*CORR_POS_NODE_LABEL07 "Si(511)"
*CORR_POS_NODE_LABEL08 "Si(440)"
*CORR_POS_NODE_LABEL09 "Si(531)"
*CORR_POS_NODE_LABEL10 "Si(620)"
*CORR_POS_NODE_LABEL11 "Si(533)"
*CORR_POS_NODE_POS_CALC01 "28.4137"
*CORR_POS_NODE_POS_CALC02 "47.2707"
*CORR_POS_NODE_POS_CALC03 "56.0883"
*CORR_POS_NODE_POS_CALC04 "69.0934"
*CORR_POS_NODE_POS_CALC05 "76.3385"
*CORR_POS_NODE_POS_CALC06 "87.9915"
*CORR_POS_NODE_POS_CALC07 "94.9137"
*CORR_POS_NODE_POS_CALC08 "106.67"
*CORR_POS_NODE_POS_CALC09 "114.054"
*CORR_POS_NODE_POS_CALC10 "127.508"
*CORR_POS_NODE_POS_CALC11 "136.858"
*CORR_POS_NODE_POS_MEAS01 "28.3712"
*CORR_POS_NODE_POS_MEAS02 "47.2304"
*CORR_POS_NODE_POS_MEAS03 "56.0465"
*CORR_POS_NODE_POS_MEAS04 "69.0523"
*CORR_POS_NODE_POS_MEAS05 "76.2993"
*CORR_POS_NODE_POS_MEAS06 "87.9512"
*CORR_POS_NODE_POS_MEAS07 "94.8772"
*CORR_POS_NODE_POS_MEAS08 "106.636"
*CORR_POS_NODE_POS_MEAS09 "114.028"
*CORR_POS_NODE_POS_MEAS10 "127.48"
*CORR_POS_NODE_POS_MEAS11 "136.839"
*CORR_POS_OPT_ATTR "集中法"
*CORR_POS_PARAM_MU ""
*CORR_POS_PARAM_PL ""
*CORR_POS_SEMODEL_TYPE "0"
*CORR_POS_STANDARD_TYPE ""
*CORR_POS_VALUE_ANALYZER "None"
*CORR_POS_VALUE_CMONO "None"
*CORR_POS_VALUE_IMONO "None"
*CORR_POS_VALUE_IS "0.625deg"
*CORR_POS_VALUE_ISL "10.0mm"
*CORR_POS_VALUE_ISOLLER "2.5deg"
*CORR_POS_VALUE_RS1 "13.0mm"
*CORR_POS_VALUE_RS2 "13.0mm"
*CORR_POS_VALUE_RSOLLER "2.5deg"
*CORR_POS_XG_FOCUS_L ""
*CORR_POS_XG_WAVE_TYPE ""
*CORR_POS_XG_WAVE_VALUE ""
*DISP_FMT_X "%.2f"
*DISP_FMT_Y "%.0f"
*DISP_FULLSCALE "4942.8000000000"
*DISP_LINE_COLOR "255.0000000000"
*DISP_LINE_STYLE "0.0000000000"
*DISP_LINE_WIDTH "0.2500000000"
*DISP_NOTE "Collected Data-1"
*DISP_OFFSET_Y "0.0000000000"
*DISP_PEAKSEARCH_UNIT_Y "COUNTS"
*DISP_RANGE_BOTTOM "0.0000000000"
*DISP_RANGE_LEFT "20.0000000000"
*DISP_RANGE_LOGCUTOFF "0.0100000000"
*DISP_RANGE_RIGHT "90.0000000000"
*DISP_RANGE_TOP "4942.8000000000"
*DISP_SCALE_MODE_Y "0.0000000000"
*DISP_TAB_NAME "Theta/2-Theta"
*DISP_TITLE_Y "Intensity"
*DISP_UNIT_Y "COUNTS"
*DISP_WINDOW_NAME "MSG_MACROENGINE"
*FILE_COMMENT " "
*FILE_MD5 ""
*FILE_MEMO " "
*FILE_OPERATOR "MiniFlex"
*FILE_PART_ID "MEAS_PBEA_00223"
*FILE_SAMPLE "cu2o_014_step0.02_speed20"
*FILE_TYPE "RAS_RAW"
*FILE_USERGROUP "System User"
*FILE_VERSION "1.0000000000"
*HW_ATTACHMENT_ID "ATT1031"
*HW_ATTACHMENT_NAME "6サンプルチェンジャ|ASC-6"
*HW_COUNTER_ID-0 "CUT0025"
*HW_COUNTER_ID-1 "CUT0020"
*HW_COUNTER_ID-2 "CUT0020"
*HW_COUNTER_ID-3 "CMC0021"
*HW_COUNTER_NAME-0 "D/teX Ultra|D/teX Ultra"
*HW_COUNTER_NAME-1 "None|None"
*HW_COUNTER_NAME-2 "None|None"
*HW_COUNTER_NAME-3 "検出器モノクロメータ|Detector monochromator"
*HW_COUNTER_SELECT_NAME "D/teX Ultra|D/teX Ultra"
*HW_GONIOMETER_ID "GON0070"
*HW_GONIOMETER_NAME "MiniFlex 300/600|MiniFlex 300/600"
*HW_GONIOMETER_RADIUS-0 "79.0"
*HW_GONIOMETER_RADIUS-1 "91.5"
*HW_GONIOMETER_RADIUS-2 "150.0"
*HW_GONIOMETER_RADIUS-3 "0"
*HW_GONIOMETER_RADIUS-4 "103.4"
*HW_GONIOMETER_RADIUS-5 "150.0"
*HW_GONIOMETER_RADIUS-6 "46.6"
*HW_GONIOMETER_RADIUS-7 "160.0"
*HW_I_OPT_ID-0 "ISL0021"
*HW_I_OPT_ID-1 "ISO0021"
*HW_I_OPT_NAME-0 "発散スリット|Divergence slit"
*HW_I_OPT_NAME-1 "入射平行スリット|Incident parallel slit"
*HW_R_ATTENUATER_AUTOMODE "0"
*HW_R_OPT_ID-0 "RSS0021"
*HW_R_OPT_ID-1 "RSO0021"
*HW_R_OPT_ID-2 "RRS0021"
*HW_R_OPT_NAME-0 "散乱スリット|Scattering slit"
*HW_R_OPT_NAME-1 "受光平行スリット|Receiving soller slit"
*HW_R_OPT_NAME-2 "受光スリット|Receiving slit"
*HW_SAMPLE_HOLDER_ID "SMP0000"
*HW_SAMPLE_HOLDER_NAME "無し|None"
*HW_XG_CURRENT_MAX "15"
*HW_XG_CURRENT_MIN "2"
*HW_XG_CURRENT_RESOLUTION "1"
*HW_XG_CURRENT_UNIT "mA"
*HW_XG_FOCUS "1mm x 10mm"
*HW_XG_FOCUS_TYPE "Normal"
*HW_XG_ID "1060"
*HW_XG_NAME "300W/600W 封入管-B|300W/600W Sealed tube-B"
*HW_XG_TARGET_ATOMIC_NUMBER "29.0000000000"
*HW_XG_TARGET_NAME "Cu"
*HW_XG_TYPE "Hermetic"
*HW_XG_VOLTAGE_MAX "40"
*HW_XG_VOLTAGE_MIN "20"
*HW_XG_VOLTAGE_RESOLUTION "1"
*HW_XG_VOLTAGE_UNIT "kV"
*HW_XG_WATT_MAX "1"
*HW_XG_WATT_UNIT "kW"
*HW_XG_WAVE_LENGTH_ALPHA1 "1.540593"
*HW_XG_WAVE_LENGTH_ALPHA2 "1.544414"
*HW_XG_WAVE_LENGTH_BETA "1.392250"
*MEAS_COND_AXIS_NAME-0 "Theta/2-Theta"
*MEAS_COND_AXIS_NAME-1 "Spin"
*MEAS_COND_AXIS_NAME-2 "Change"
*MEAS_COND_AXIS_NAME-3 "Soller(inc.)"
*MEAS_COND_AXIS_NAME-4 "IHS"
*MEAS_COND_AXIS_NAME-5 "DS"
*MEAS_COND_AXIS_NAME-6 "SS"
*MEAS_COND_AXIS_NAME-7 "Soller(rec.)"
*MEAS_COND_AXIS_NAME-8 "RS"
*MEAS_COND_AXIS_NAME-9 "Filter"
*MEAS_COND_AXIS_NAME-10 "Monochromator"
*MEAS_COND_AXIS_NAME-11 "PHA"
*MEAS_COND_AXIS_NAME_INTERNAL-0 "TwoThetaTheta"
*MEAS_COND_AXIS_NAME_INTERNAL-1 "Spin"
*MEAS_COND_AXIS_NAME_INTERNAL-2 "Change"
*MEAS_COND_AXIS_NAME_INTERNAL-3 "IncidentSollerSlit"
*MEAS_COND_AXIS_NAME_INTERNAL-4 "IncidentAxdSlit"
*MEAS_COND_AXIS_NAME_INTERNAL-5 "IncidentSlitBox"
*MEAS_COND_AXIS_NAME_INTERNAL-6 "ReceivingSlitBox1"
*MEAS_COND_AXIS_NAME_INTERNAL-7 "ReceivingSollerSlit"
*MEAS_COND_AXIS_NAME_INTERNAL-8 "ReceivingSlitBox2"
*MEAS_COND_AXIS_NAME_INTERNAL-9 "Filter"
*MEAS_COND_AXIS_NAME_INTERNAL-10 "CounterMonochromator"
*MEAS_COND_AXIS_NAME_INTERNAL-11 "PHA"
*MEAS_COND_AXIS_NAME_MAGICNO-0 "268632064.0000000000"
*MEAS_COND_AXIS_NAME_MAGICNO-1 "16842752.0000000000"
*MEAS_COND_AXIS_NAME_MAGICNO-2 "16842752.0000000000"
*MEAS_COND_AXIS_NAME_MAGICNO-3 "20971521.0000000000"
*MEAS_COND_AXIS_NAME_MAGICNO-4 "22020097.0000000000"
*MEAS_COND_AXIS_NAME_MAGICNO-5 "22020097.0000000000"
*MEAS_COND_AXIS_NAME_MAGICNO-6 "23068673.0000000000"
*MEAS_COND_AXIS_NAME_MAGICNO-7 "20971521.0000000000"
*MEAS_COND_AXIS_NAME_MAGICNO-8 "23068673.0000000000"
*MEAS_COND_AXIS_NAME_MAGICNO-9 "20971521.0000000000"
*MEAS_COND_AXIS_NAME_MAGICNO-10 "20971521.0000000000"
*MEAS_COND_AXIS_NAME_MAGICNO-11 "0.0000000000"
*MEAS_COND_AXIS_OFFSET-0 "0.0000000000"
*MEAS_COND_AXIS_OFFSET-1 "-"
*MEAS_COND_AXIS_OFFSET-2 "-"
*MEAS_COND_AXIS_OFFSET-3 "-"
*MEAS_COND_AXIS_OFFSET-4 "-"
*MEAS_COND_AXIS_OFFSET-5 "-"
*MEAS_COND_AXIS_OFFSET-6 "-"
*MEAS_COND_AXIS_OFFSET-7 "-"
*MEAS_COND_AXIS_OFFSET-8 "-"
*MEAS_COND_AXIS_OFFSET-9 "-"
*MEAS_COND_AXIS_OFFSET-10 "-"
*MEAS_COND_AXIS_OFFSET-11 "-"
*MEAS_COND_AXIS_POSITION-0 "10.0000000000"
*MEAS_COND_AXIS_POSITION-1 "0.0000000000"
*MEAS_COND_AXIS_POSITION-2 "4.0000000000"
*MEAS_COND_AXIS_POSITION-3 "2.5deg"
*MEAS_COND_AXIS_POSITION-4 "2.0mm"
*MEAS_COND_AXIS_POSITION-5 "0.625deg"
*MEAS_COND_AXIS_POSITION-6 "13.0mm(Open)"
*MEAS_COND_AXIS_POSITION-7 "2.5deg"
*MEAS_COND_AXIS_POSITION-8 "13.0mm"
*MEAS_COND_AXIS_POSITION-9 "K-beta(x2)"
*MEAS_COND_AXIS_POSITION-10 "None"
*MEAS_COND_AXIS_POSITION-11 "41.0000000000"
*MEAS_COND_AXIS_UNIT-0 "deg"
*MEAS_COND_AXIS_UNIT-1 ""
*MEAS_COND_AXIS_UNIT-2 ""
*MEAS_COND_AXIS_UNIT-3 ""
*MEAS_COND_AXIS_UNIT-4 ""
*MEAS_COND_AXIS_UNIT-5 ""
*MEAS_COND_AXIS_UNIT-6 ""
*MEAS_COND_AXIS_UNIT-7 ""
*MEAS_COND_AXIS_UNIT-8 ""
*MEAS_COND_AXIS_UNIT-9 ""
*MEAS_COND_AXIS_UNIT-10 ""
*MEAS_COND_AXIS_UNIT-11 "div"
*MEAS_COND_CORRECTION_SLIT_COUNTERMONO "None"
*MEAS_COND_CORRECTION_SLIT_DS "0.625deg"
*MEAS_COND_CORRECTION_SLIT_FILTER "None"
*MEAS_COND_CORRECTION_SLIT_IHS "2.0mm"
*MEAS_COND_CORRECTION_SLIT_RS "13.0mm"
*MEAS_COND_CORRECTION_SLIT_SOLLER_INC "2.5deg"
*MEAS_COND_CORRECTION_SLIT_SOLLER_REC "2.5deg"
*MEAS_COND_CORRECTION_SLIT_SS "13.0mm"
*MEAS_COND_COUNTER_CNTLOSS_CORR "0.0000000000"
*MEAS_COND_COUNTER_PHABASE "41.0000000000"
*MEAS_COND_COUNTER_PHAWINDOW "14.0000000000"
*MEAS_COND_COUNTER_PHA_UNIT "div"
*MEAS_COND_COUNTER_TAUDIFF "0.2500000000"
*MEAS_COND_COUNTER_TAUINT "0.7500000000"
*MEAS_COND_IRRADIATION_MODE "OFF"
*MEAS_COND_IRRADIATION_WIDTH ""
*MEAS_COND_OPT_ATTR " "
*MEAS_COND_OPT_NAME ""
*MEAS_COND_UNSYMMETRIC_MODE "OFF"
*MEAS_COND_XG_CURRENT "15.0000000000"
*MEAS_COND_XG_VOLTAGE "40.0000000000"
*MEAS_COND_XG_WAVE_TYPE "Ka"
*MEAS_DATA_COUNT "3501.0000000000"
*MEAS_SCAN_AXIS_X "Theta/2-Theta"
*MEAS_SCAN_AXIS_X_INTERNAL "TwoThetaTheta"
*MEAS_SCAN_END_TIME "09/07/17 13:33:43"
*MEAS_SCAN_MODE "CONTINUOUS"
*MEAS_SCAN_MONITOR "0"
*MEAS_SCAN_RESOLUTION_X "0.005"
*MEAS_SCAN_SPEED "20.000"
*MEAS_SCAN_SPEED_UNIT "deg/min"
*MEAS_SCAN_SPEED_USER "20.000"
*MEAS_SCAN_START "20.0000000000"
*MEAS_SCAN_START_TIME "09/07/17 13:29:41"
*MEAS_SCAN_STEP "0.0200000000"
*MEAS_SCAN_STOP "90.0000000000"
*MEAS_SCAN_UNIT_X "deg"
*MEAS_SCAN_UNIT_Y "counts"
*SLIT_SYSTEM "0"
*RAS_HEADER_END
*RAS_INT_START
20.000 156.000 1.000
20.020 156.000 1.000
20.040 156.000 1.000
20.060 156.000 1.000
20.080 128.000 1.000
20.100 131.000 1.000
20.120 124.000 1.000
20.140 143.000 1.000
20.160 130.000 1.000
20.180 134.000 1.000
20.200 134.000 1.000
20.220 131.000 1.000
20.240 144.000 1.000
20.260 112.000 1.000
20.280 131.000 1.000
20.300 142.000 1.000
20.320 142.000 1.000
20.340 145.000 1.000
20.360 138.000 1.000
20.380 133.000 1.000
20.400 141.000 1.000
20.420 143.000 1.000
20.440 147.000 1.000
20.460 124.000 1.000
20.480 137.000 1.000
20.500 125.000 1.000
20.520 119.000 1.000
20.540 132.000 1.000
20.560 134.000 1.000
20.580 126.000 1.000
20.600 129.000 1.000
20.620 129.000 1.000
20.640 135.000 1.000
20.660 138.000 1.000
20.680 136.000 1.000
20.700 125.000 1.000
20.720 129.000 1.000
20.740 133.000 1.000
20.760 137.000 1.000
20.780 134.000 1.000
20.800 121.000 1.000
20.820 136.000 1.000
20.840 139.000 1.000
20.860 152.000 1.000
20.880 147.000 1.000
20.900 149.000 1.000
20.920 146.000 1.000
20.940 127.000 1.000
20.960 133.000 1.000
20.980 133.000 1.000
21.000 135.000 1.000
21.020 133.000 1.000
21.040 126.000 1.000
21.060 142.000 1.000
21.080 139.000 1.000
21.100 144.000 1.000
21.120 141.000 1.000
21.140 138.000 1.000
21.160 143.000 1.000
21.180 140.000 1.000
21.200 127.000 1.000
21.220 135.000 1.000
21.240 134.000 1.000
21.260 135.000 1.000
21.280 141.000 1.000
21.300 155.000 1.000
21.320 149.000 1.000
21.340 163.000 1.000
21.360 145.000 1.000
21.380 135.000 1.000
21.400 146.000 1.000
21.420 155.000 1.000
21.440 134.000 1.000
21.460 128.000 1.000
21.480 132.000 1.000
21.500 127.000 1.000
21.520 128.000 1.000
21.540 147.000 1.000
21.560 143.000 1.000
21.580 137.000 1.000
21.600 135.000 1.000
21.620 128.000 1.000
21.640 124.000 1.000
21.660 128.000 1.000
21.680 135.000 1.000
21.700 134.000 1.000
21.720 148.000 1.000
21.740 147.000 1.000
21.760 131.000 1.000
21.780 129.000 1.000
21.800 140.000 1.000
21.820 148.000 1.000
21.840 155.000 1.000
21.860 158.000 1.000
21.880 148.000 1.000
21.900 133.000 1.000
21.920 151.000 1.000
21.940 142.000 1.000
21.960 131.000 1.000
21.980 141.000 1.000
22.000 149.000 1.000
22.020 140.000 1.000
22.040 148.000 1.000
22.060 148.000 1.000
22.080 137.000 1.000
22.100 151.000 1.000
22.120 147.000 1.000
22.140 136.000 1.000
22.160 151.000 1.000
22.180 142.000 1.000
22.200 158.000 1.000
22.220 164.000 1.000
22.240 165.000 1.000
22.260 165.000 1.000
22.280 147.000 1.000
22.300 138.000 1.000
22.320 147.000 1.000
22.340 155.000 1.000
22.360 156.000 1.000
22.380 145.000 1.000
22.400 145.000 1.000
22.420 147.000 1.000
22.440 148.000 1.000
22.460 151.000 1.000
22.480 156.000 1.000
22.500 145.000 1.000
22.520 144.000 1.000
22.540 148.000 1.000
22.560 137.000 1.000
22.580 152.000 1.000
22.600 165.000 1.000
22.620 152.000 1.000
22.640 144.000 1.000
22.660 154.000 1.000
22.680 153.000 1.000
22.700 160.000 1.000
22.720 145.000 1.000
22.740 145.000 1.000
22.760 159.000 1.000
22.780 160.000 1.000
22.800 160.000 1.000
22.820 146.000 1.000
22.840 134.000 1.000
22.860 136.000 1.000
22.880 161.000 1.000
22.900 162.000 1.000
22.920 138.000 1.000
22.940 158.000 1.000
22.960 159.000 1.000
22.980 144.000 1.000
23.000 136.000 1.000
23.020 144.000 1.000
23.040 177.000 1.000
23.060 172.000 1.000
23.080 144.000 1.000
23.100 158.000 1.000
23.120 158.000 1.000
23.140 166.000 1.000
23.160 171.000 1.000
23.180 181.000 1.000
23.200 180.000 1.000
23.220 168.000 1.000
23.240 164.000 1.000
23.260 174.000 1.000
23.280 182.000 1.000
23.300 161.000 1.000
23.320 149.000 1.000
23.340 151.000 1.000
23.360 177.000 1.000
23.380 189.000 1.000
23.400 187.000 1.000
23.420 192.000 1.000
23.440 172.000 1.000
23.460 182.000 1.000
23.480 215.000 1.000
23.500 197.000 1.000
23.520 170.000 1.000
23.540 153.000 1.000
23.560 158.000 1.000
23.580 181.000 1.000
23.600 187.000 1.000
23.620 196.000 1.000
23.640 180.000 1.000
23.660 196.000 1.000
23.680 184.000 1.000
23.700 199.000 1.000
23.720 185.000 1.000
23.740 197.000 1.000
23.760 190.000 1.000
23.780 206.000 1.000
23.800 212.000 1.000
23.820 187.000 1.000
23.840 189.000 1.000
23.860 202.000 1.000
23.880 193.000 1.000
23.900 215.000 1.000
23.920 196.000 1.000
23.940 202.000 1.000
23.960 218.000 1.000
23.980 190.000 1.000
24.000 212.000 1.000
24.020 223.000 1.000
24.040 212.000 1.000
24.060 212.000 1.000
24.080 213.000 1.000
24.100 220.000 1.000
24.120 214.000 1.000
24.140 232.000 1.000
24.160 237.000 1.000
24.180 234.000 1.000
24.200 241.000 1.000
24.220 226.000 1.000
24.240 257.000 1.000
24.260 258.000 1.000
24.280 232.000 1.000
24.300 226.000 1.000
24.320 257.000 1.000
24.340 256.000 1.000
24.360 235.000 1.000
24.380 236.000 1.000
24.400 259.000 1.000
24.420 247.000 1.000
24.440 241.000 1.000
24.460 257.000 1.000
24.480 262.000 1.000
24.500 256.000 1.000
24.520 282.000 1.000
24.540 272.000 1.000
24.560 271.000 1.000
24.580 289.000 1.000
24.600 316.000 1.000
24.620 301.000 1.000
24.640 291.000 1.000
24.660 266.000 1.000
24.680 285.000 1.000
24.700 307.000 1.000
24.720 332.000 1.000
24.740 348.000 1.000
24.760 321.000 1.000
24.780 337.000 1.000
24.800 346.000 1.000
24.820 344.000 1.000
24.840 357.000 1.000
24.860 326.000 1.000
24.880 327.000 1.000
24.900 343.000 1.000
24.920 362.000 1.000
24.940 368.000 1.000
24.960 395.000 1.000
24.980 382.000 1.000
25.000 401.000 1.000
25.020 427.000 1.000
25.040 412.000 1.000
25.060 425.000 1.000
25.080 451.000 1.000
25.100 428.000 1.000
25.120 454.000 1.000
25.140 452.000 1.000
25.160 483.000 1.000
25.180 468.000 1.000
25.200 503.000 1.000
25.220 544.000 1.000
25.240 547.000 1.000
25.260 522.000 1.000
25.280 525.000 1.000
25.300 571.000 1.000
25.320 563.000 1.000
25.340 578.000 1.000
25.360 565.000 1.000
25.380 587.000 1.000
25.400 642.000 1.000
25.420 652.000 1.000
25.440 640.000 1.000
25.460 699.000 1.000
25.480 678.000 1.000
25.500 702.000 1.000
25.520 710.000 1.000
25.540 732.000 1.000
25.560 749.000 1.000
25.580 705.000 1.000
25.600 774.000 1.000
25.620 861.000 1.000
25.640 824.000 1.000
25.660 826.000 1.000
25.680 850.000 1.000
25.700 842.000 1.000
25.720 859.000 1.000
25.740 904.000 1.000
25.760 953.000 1.000
25.780 970.000 1.000
25.800 970.000 1.000
25.820 958.000 1.000
25.840 986.000 1.000
25.860 982.000 1.000
25.880 1029.000 1.000
25.900 1024.000 1.000
25.920 1025.000 1.000
25.940 1052.000 1.000
25.960 1095.000 1.000
25.980 1108.000 1.000
26.000 1142.000 1.000
26.020 1187.000 1.000
26.040 1190.000 1.000
26.060 1197.000 1.000
26.080 1182.000 1.000
26.100 1240.000 1.000
26.120 1268.000 1.000
26.140 1338.000 1.000
26.160 1407.000 1.000
26.180 1449.000 1.000
26.200 1515.000 1.000
26.220 1625.000 1.000
26.240 1782.000 1.000
26.260 1878.000 1.000
26.280 2075.000 1.000
26.300 2396.000 1.000
26.320 2656.000 1.000
26.340 3044.000 1.000
26.360 3390.000 1.000
26.380 3734.000 1.000
26.400 4006.000 1.000
26.420 4119.000 1.000
26.440 4089.000 1.000
26.460 3911.000 1.000
26.480 3680.000 1.000
26.500 3183.000 1.000
26.520 2728.000 1.000
26.540 2231.000 1.000
26.560 1821.000 1.000
26.580 1467.000 1.000
26.600 1266.000 1.000
26.620 1042.000 1.000
26.640 937.000 1.000
26.660 788.000 1.000
26.680 721.000 1.000
26.700 677.000 1.000
26.720 626.000 1.000
26.740 579.000 1.000
26.760 553.000 1.000
26.780 515.000 1.000
26.800 490.000 1.000
26.820 455.000 1.000
26.840 450.000 1.000
26.860 432.000 1.000
26.880 407.000 1.000
26.900 400.000 1.000
26.920 384.000 1.000
26.940 390.000 1.000
26.960 364.000 1.000
26.980 353.000 1.000
27.000 350.000 1.000
27.020 352.000 1.000
27.040 322.000 1.000
27.060 326.000 1.000
27.080 287.000 1.000
27.100 293.000 1.000
27.120 267.000 1.000
27.140 281.000 1.000
27.160 281.000 1.000
27.180 305.000 1.000
27.200 285.000 1.000
27.220 270.000 1.000
27.240 269.000 1.000
27.260 284.000 1.000
27.280 257.000 1.000
27.300 262.000 1.000
27.320 265.000 1.000
27.340 238.000 1.000
27.360 231.000 1.000
27.380 226.000 1.000
27.400 197.000 1.000
27.420 214.000 1.000
27.440 242.000 1.000
27.460 230.000 1.000
27.480 235.000 1.000
27.500 243.000 1.000
27.520 234.000 1.000
27.540 207.000 1.000
27.560 213.000 1.000
27.580 200.000 1.000
27.600 187.000 1.000
27.620 195.000 1.000
27.640 201.000 1.000
27.660 211.000 1.000
27.680 205.000 1.000
27.700 202.000 1.000
27.720 205.000 1.000
27.740 187.000 1.000
27.760 195.000 1.000
27.780 185.000 1.000
27.800 173.000 1.000
27.820 178.000 1.000
27.840 178.000 1.000
27.860 176.000 1.000
27.880 164.000 1.000
27.900 201.000 1.000
27.920 176.000 1.000
27.940 197.000 1.000
27.960 178.000 1.000
27.980 166.000 1.000
28.000 163.000 1.000
28.020 198.000 1.000
28.040 163.000 1.000
28.060 160.000 1.000
28.080 169.000 1.000
28.100 167.000 1.000
28.120 158.000 1.000
28.140 170.000 1.000
28.160 181.000 1.000
28.180 180.000 1.000
28.200 170.000 1.000
28.220 152.000 1.000
28.240 166.000 1.000
28.260 174.000 1.000
28.280 175.000 1.000
28.300 178.000 1.000
28.320 161.000 1.000
28.340 151.000 1.000
28.360 150.000 1.000
28.380 142.000 1.000
28.400 154.000 1.000
28.420 167.000 1.000
28.440 156.000 1.000
28.460 148.000 1.000
28.480 161.000 1.000
28.500 159.000 1.000
28.520 148.000 1.000
28.540 151.000 1.000
28.560 161.000 1.000
28.580 154.000 1.000
28.600 156.000 1.000
28.620 164.000 1.000
28.640 157.000 1.000
28.660 163.000 1.000
28.680 152.000 1.000
28.700 142.000 1.000
28.720 147.000 1.000
28.740 142.000 1.000
28.760 145.000 1.000
28.780 149.000 1.000
28.800 155.000 1.000
28.820 145.000 1.000
28.840 139.000 1.000
28.860 146.000 1.000
28.880 128.000 1.000
28.900 152.000 1.000
28.920 136.000 1.000
28.940 134.000 1.000
28.960 140.000 1.000
28.980 152.000 1.000
29.000 142.000 1.000
29.020 124.000 1.000
29.040 136.000 1.000
29.060 127.000 1.000
29.080 122.000 1.000
29.100 147.000 1.000
29.120 129.000 1.000
29.140 137.000 1.000
29.160 142.000 1.000
29.180 136.000 1.000
29.200 133.000 1.000
29.220 127.000 1.000
29.240 142.000 1.000
29.260 147.000 1.000
29.280 149.000 1.000
29.300 141.000 1.000
29.320 154.000 1.000
29.340 140.000 1.000
29.360 157.000 1.000
29.380 156.000 1.000
29.400 170.000 1.000
29.420 152.000 1.000
29.440 162.000 1.000
29.460 177.000 1.000
29.480 192.000 1.000
29.500 206.000 1.000
29.520 195.000 1.000
29.540 193.000 1.000
29.560 220.000 1.000
29.580 213.000 1.000
29.600 231.000 1.000
29.620 227.000 1.000
29.640 221.000 1.000
29.660 208.000 1.000
29.680 210.000 1.000
29.700 203.000 1.000
29.720 203.000 1.000
29.740 167.000 1.000
29.760 156.000 1.000
29.780 165.000 1.000
29.800 152.000 1.000
29.820 149.000 1.000
29.840 170.000 1.000
29.860 157.000 1.000
29.880 138.000 1.000
29.900 132.000 1.000
29.920 143.000 1.000
29.940 132.000 1.000
29.960 134.000 1.000
